timestamps,TP9,AF7,AF8,TP10,Right AUX
1659298145.785,142.578,41.016,44.434,172.852,0.000
1659298145.789,137.695,53.711,47.852,158.691,0.000
1659298145.793,126.465,50.781,40.527,151.367,0.000
1659298145.797,128.906,55.664,39.062,165.039,0.000
1659298145.800,144.043,59.082,46.387,180.664,0.000
1659298145.804,144.043,54.199,52.734,170.410,0.000
1659298145.808,140.137,47.363,46.387,152.344,0.000
1659298145.812,145.996,52.246,35.156,152.344,0.000
1659298145.816,155.762,42.480,39.551,167.969,0.000
1659298145.820,143.066,25.391,34.180,169.922,0.000
1659298145.824,134.277,45.898,27.344,149.414,0.000
1659298145.828,128.906,54.199,29.297,146.973,0.000
1659298145.832,131.836,42.969,20.996,164.551,0.000
1659298145.836,141.113,42.480,21.973,169.434,0.000
1659298145.840,137.695,40.039,24.414,152.344,0.000
1659298145.843,132.812,36.621,22.949,154.785,0.000
1659298145.847,146.973,46.387,31.250,177.246,0.000
1659298145.851,154.297,51.270,38.086,181.641,0.000
1659298145.855,133.301,41.016,40.039,163.574,0.000
1659298145.859,127.441,39.551,43.945,159.668,0.000
1659298145.863,140.137,37.598,48.340,172.363,0.000
1659298145.867,145.508,38.574,47.852,186.035,0.000
1659298145.871,141.113,47.363,51.270,179.688,0.000
1659298145.875,137.207,47.852,57.617,166.016,0.000
1659298145.879,142.090,52.734,59.082,164.062,0.000
1659298145.882,145.996,58.105,45.898,166.504,0.000
1659298145.886,142.578,50.781,41.992,163.574,0.000
1659298145.890,140.625,52.734,50.293,160.156,0.000
1659298145.894,138.184,50.293,45.410,149.902,0.000
1659298145.898,150.879,49.805,38.086,159.180,0.000
1659298145.902,159.668,52.246,44.922,174.805,0.000
1659298145.906,140.625,47.852,53.711,162.598,0.000
1659298145.910,126.953,40.527,41.504,155.273,0.000
1659298145.914,130.371,36.133,33.203,159.180,0.000
1659298145.918,140.137,46.875,41.016,169.922,0.000
1659298145.921,131.348,61.035,42.969,161.621,0.000
1659298145.925,126.465,61.035,37.109,152.344,0.000
1659298145.929,141.113,57.129,37.109,157.715,0.000
1659298145.933,154.297,59.570,47.852,180.176,0.000
1659298145.937,145.020,56.152,52.734,183.105,0.000
1659298145.941,143.066,48.828,55.664,165.039,0.000
1659298145.945,154.785,54.199,59.570,173.828,0.000
1659298145.949,162.109,51.270,57.617,189.453,0.000
1659298145.953,155.273,49.316,57.617,182.129,0.000
1659298145.957,142.090,50.781,55.176,156.738,0.000
1659298145.961,148.438,55.176,61.035,154.785,0.000
1659298145.964,156.738,66.895,62.012,172.363,0.000
1659298145.968,160.645,75.684,58.594,185.547,0.000
1659298145.972,158.203,78.613,65.918,174.316,0.000
1659298145.976,157.715,73.242,67.871,178.711,0.000
1659298145.980,167.969,65.430,67.383,197.266,0.000
1659298145.984,166.992,57.129,55.176,193.848,0.000
1659298145.988,154.785,50.781,49.805,172.852,0.000
1659298145.992,151.367,44.922,54.199,167.969,0.000
1659298145.996,154.785,48.828,56.641,177.734,0.000
1659298146.000,150.879,58.105,60.059,187.500,0.000
1659298146.004,135.742,62.012,51.758,169.922,0.000
1659298146.007,134.766,59.082,53.711,161.133,0.000
1659298146.011,143.555,56.152,59.570,173.340,0.000
1659298146.015,146.484,56.152,45.898,189.941,0.000
1659298146.019,151.367,50.293,39.062,187.988,0.000
1659298146.023,140.137,40.527,47.852,170.898,0.000
1659298146.027,143.066,41.992,51.758,167.480,0.000
1659298146.031,153.320,55.664,39.062,177.246,0.000
1659298146.035,147.461,63.477,31.250,174.805,0.000
1659298146.039,128.418,73.242,41.504,159.668,0.000
1659298146.043,132.324,72.754,54.199,166.504,0.000
1659298146.047,140.625,68.848,55.664,168.945,0.000
1659298146.051,142.578,60.547,51.758,171.875,0.000
1659298146.054,140.137,61.523,54.688,171.875,0.000
1659298146.058,134.277,61.523,63.965,163.086,0.000
1659298146.062,132.324,53.711,65.918,163.574,0.000
1659298146.066,142.578,57.129,69.336,178.223,0.000
1659298146.070,147.461,58.594,71.777,177.734,0.000
1659298146.074,141.602,55.664,66.895,173.340,0.000
1659298146.078,141.113,54.688,61.035,165.527,0.000
1659298146.082,145.996,62.012,59.570,169.434,0.000
1659298146.086,151.367,71.777,62.500,179.199,0.000
1659298146.090,152.344,79.590,66.895,170.898,0.000
1659298146.093,147.461,69.336,61.523,167.480,0.000
1659298146.097,153.809,64.453,67.383,174.805,0.000
1659298146.101,162.598,76.660,83.496,197.754,0.000
1659298146.105,155.762,71.289,78.125,197.266,0.000
1659298146.109,155.273,70.312,70.312,184.082,0.000
1659298146.113,158.691,81.543,85.449,196.777,0.000
1659298146.117,161.621,73.730,93.262,214.355,0.000
1659298146.121,153.809,67.871,77.637,204.590,0.000
1659298146.125,153.809,77.148,70.801,187.012,0.000
1659298146.129,156.250,76.660,80.566,194.336,0.000
1659298146.133,147.461,65.430,94.727,212.402,0.000
1659298146.136,135.742,58.105,98.145,204.102,0.000
1659298146.140,138.672,62.988,106.934,192.383,0.000
1659298146.144,149.902,69.336,116.699,209.961,0.000
1659298146.148,145.020,65.430,118.652,222.168,0.000
1659298146.152,144.531,56.641,123.047,218.262,0.000
1659298146.156,142.090,59.570,124.512,208.496,0.000
1659298146.160,147.949,70.312,124.023,210.449,0.000
1659298146.164,160.156,67.871,128.418,219.727,0.000
1659298146.168,159.668,62.988,130.371,228.027,0.000
1659298146.172,151.367,69.824,123.047,216.797,0.000
1659298146.176,156.738,78.613,127.441,211.914,0.000
1659298146.180,168.945,80.078,128.906,216.797,0.000
1659298146.183,177.734,81.543,124.023,222.656,0.000
1659298146.187,177.246,79.102,140.137,222.656,0.000
1659298146.191,180.664,85.449,155.762,230.957,0.000
1659298146.195,192.383,89.355,159.668,235.840,0.000
1659298146.199,193.848,72.266,160.156,235.840,0.000
1659298146.203,186.523,83.984,160.156,236.328,0.000
1659298146.207,180.176,97.168,159.668,231.445,0.000
1659298146.211,182.129,91.797,162.598,233.887,0.000
1659298146.215,189.941,98.633,169.922,244.141,0.000
1659298146.219,189.941,105.469,174.805,253.418,0.000
1659298146.223,182.617,102.539,178.223,233.398,0.000
1659298146.226,181.152,100.098,183.594,218.262,0.000
1659298146.230,183.594,100.098,182.617,227.051,0.000
1659298146.234,194.824,105.957,185.547,242.676,0.000
1659298146.238,196.289,116.211,196.777,237.305,0.000
1659298146.242,192.383,120.117,204.590,227.539,0.000
1659298146.246,196.289,124.023,206.055,239.258,0.000
1659298146.250,208.496,128.418,207.031,256.836,0.000
1659298146.254,203.613,125.488,207.031,241.211,0.000
1659298146.258,191.895,119.629,212.891,223.145,0.000
1659298146.262,194.824,115.723,218.262,224.609,0.000
1659298146.266,202.637,113.770,211.426,237.793,0.000
1659298146.270,194.336,98.145,194.824,238.770,0.000
1659298146.273,184.570,97.656,188.477,208.984,0.000
1659298146.277,178.223,109.863,193.848,207.031,0.000
1659298146.281,180.176,117.676,199.219,226.074,0.000
1659298146.285,188.477,122.559,199.707,234.375,0.000
1659298146.289,174.316,117.188,194.824,215.820,0.000
1659298146.293,176.758,109.863,200.195,213.867,0.000
1659298146.297,188.477,107.910,206.543,231.445,0.000
1659298146.301,195.312,104.004,199.707,242.188,0.000
1659298146.305,194.336,100.586,201.660,227.051,0.000
1659298146.309,194.336,114.746,210.938,228.516,0.000
1659298146.313,198.730,124.512,213.867,235.352,0.000
1659298146.316,205.566,112.305,210.938,236.816,0.000
1659298146.320,206.543,112.305,211.426,237.793,0.000
1659298146.324,206.055,114.746,212.891,216.797,0.000
1659298146.328,201.172,99.121,211.426,211.426,0.000
1659298146.332,208.496,95.215,216.309,227.539,0.000
1659298146.336,217.773,107.422,221.191,245.117,0.000
1659298146.340,207.520,122.070,223.633,230.469,0.000
1659298146.344,206.055,119.141,227.051,228.516,0.000
1659298146.348,213.867,106.445,222.168,235.840,0.000
1659298146.352,225.586,115.723,222.656,246.582,0.000
1659298146.356,221.191,131.348,226.562,244.629,0.000
1659298146.359,216.797,134.766,222.656,239.746,0.000
1659298146.363,229.004,124.023,225.098,250.977,0.000
1659298146.367,235.840,117.188,231.934,266.602,0.000
1659298146.371,219.238,109.375,231.445,253.418,0.000
1659298146.375,210.449,106.445,225.098,238.770,0.000
1659298146.379,215.820,111.816,224.609,244.141,0.000
1659298146.383,225.098,116.211,218.262,260.254,0.000
1659298146.387,224.609,121.094,209.473,248.047,0.000
1659298146.391,226.074,116.211,211.914,224.609,0.000
1659298146.395,216.797,105.957,217.285,216.797,0.000
1659298146.399,205.078,103.027,218.262,222.168,0.000
1659298146.402,205.566,105.957,219.727,241.699,0.000
1659298146.406,201.660,112.793,215.820,233.887,0.000
1659298146.410,200.195,111.328,210.449,219.727,0.000
1659298146.414,203.125,100.586,215.332,232.910,0.000
1659298146.418,196.777,93.262,207.031,244.629,0.000
1659298146.422,188.965,94.727,199.219,220.215,0.000
1659298146.426,196.289,94.238,205.566,215.820,0.000
1659298146.430,197.754,87.402,214.844,241.211,0.000
1659298146.434,206.543,93.750,224.121,262.207,0.000
1659298146.438,207.031,97.656,220.703,236.816,0.000
1659298146.442,201.660,95.215,216.797,219.727,0.000
1659298146.445,201.172,91.309,220.703,229.492,0.000
1659298146.449,205.566,95.703,227.051,242.188,0.000
1659298146.453,202.637,100.586,226.074,236.816,0.000
1659298146.457,200.684,96.191,225.586,219.238,0.000
1659298146.461,203.125,101.074,237.793,227.539,0.000
1659298146.465,198.242,94.727,233.398,241.211,0.000
1659298146.469,194.336,78.613,216.797,241.699,0.000
1659298146.473,187.500,80.078,208.984,219.238,0.000
1659298146.477,184.082,91.309,208.984,213.379,0.000
1659298146.480,182.129,91.309,209.961,233.398,0.000
1659298146.484,195.312,97.168,210.938,250.000,0.000
1659298146.488,194.824,97.168,216.797,239.258,0.000
1659298146.492,190.918,93.262,216.309,233.887,0.000
1659298146.496,203.125,96.680,206.055,240.723,0.000
1659298146.500,211.426,90.820,197.754,255.371,0.000
1659298146.504,201.660,86.426,196.289,246.582,0.000
1659298146.508,199.707,87.891,208.496,230.469,0.000
1659298146.512,208.496,93.750,224.121,245.605,0.000
1659298146.516,221.680,85.449,230.957,261.719,0.000
1659298146.520,230.957,87.402,225.586,254.883,0.000
1659298146.524,214.844,107.422,219.727,238.770,0.000
1659298146.527,188.965,106.934,221.191,227.051,0.000
1659298146.531,192.383,100.586,222.656,230.957,0.000
1659298146.535,203.125,107.910,220.215,238.281,0.000
1659298146.539,188.477,104.980,214.844,225.586,0.000
1659298146.543,184.570,88.379,213.867,218.262,0.000
1659298146.547,203.613,94.238,219.238,228.516,0.000
1659298146.551,211.914,105.957,229.004,244.629,0.000
1659298146.555,194.824,97.656,229.492,228.027,0.000
1659298146.559,189.453,96.191,222.656,213.867,0.000
1659298146.563,192.871,101.074,217.285,217.285,0.000
1659298146.567,202.148,98.633,216.797,233.887,0.000
1659298146.570,204.102,96.191,211.426,232.910,0.000
1659298146.574,196.289,103.027,207.031,204.590,0.000
1659298146.578,187.012,104.004,212.402,196.289,0.000
1659298146.582,193.359,99.609,215.332,217.285,0.000
1659298146.586,193.359,95.215,207.520,218.750,0.000
1659298146.590,170.898,84.961,197.754,187.988,0.000
1659298146.594,167.969,84.473,190.918,175.293,0.000
1659298146.598,177.246,93.750,189.453,181.641,0.000
1659298146.602,184.570,98.145,191.895,192.871,0.000
1659298146.606,172.363,95.215,195.801,184.082,0.000
1659298146.610,169.434,93.750,208.496,185.547,0.000
1659298146.613,174.316,85.938,208.008,199.219,0.000
1659298146.617,185.059,79.590,191.406,201.660,0.000
1659298146.621,189.941,82.520,196.777,191.406,0.000
1659298146.625,176.758,74.219,204.102,197.266,0.000
1659298146.629,167.480,77.637,188.965,198.242,0.000
1659298146.633,175.293,92.285,182.617,207.031,0.000
1659298146.637,177.246,97.656,189.453,210.449,0.000
1659298146.641,169.922,92.773,193.848,186.523,0.000
1659298146.645,167.969,80.566,196.777,183.594,0.000
1659298146.649,175.781,77.637,189.941,193.848,0.000
1659298146.653,183.105,86.914,187.012,199.219,0.000
1659298146.656,168.457,89.355,195.801,195.312,0.000
1659298146.660,165.039,84.473,197.754,188.965,0.000
1659298146.664,176.270,84.473,195.312,191.406,0.000
1659298146.668,180.176,78.613,195.312,209.961,0.000
1659298146.672,174.316,73.730,193.848,204.102,0.000
1659298146.676,166.992,77.148,189.453,194.824,0.000
1659298146.680,169.434,83.008,191.406,202.148,0.000
1659298146.684,184.570,87.402,189.941,208.008,0.000
1659298146.688,181.641,81.055,186.523,206.543,0.000
1659298146.692,167.969,74.219,188.477,188.477,0.000
1659298146.695,165.527,70.801,186.523,185.059,0.000
1659298146.699,166.992,60.547,172.363,203.613,0.000
1659298146.703,170.410,63.965,171.875,208.496,0.000
1659298146.707,161.133,62.988,172.852,188.477,0.000
1659298146.711,151.855,55.664,166.992,173.340,0.000
1659298146.715,155.762,61.035,166.504,177.734,0.000
1659298146.719,159.180,73.242,162.109,187.500,0.000
1659298146.723,151.367,75.684,161.133,179.688,0.000
1659298146.727,154.297,72.266,160.645,165.039,0.000
1659298146.731,158.203,66.406,155.273,168.945,0.000
1659298146.735,156.250,60.547,145.996,180.176,0.000
1659298146.739,150.391,52.246,139.160,167.480,0.000
1659298146.742,138.184,41.992,138.184,160.156,0.000
1659298146.746,143.066,45.410,149.902,170.410,0.000
1659298146.750,157.227,61.523,159.668,182.129,0.000
1659298146.754,150.391,64.453,147.461,169.922,0.000
1659298146.758,142.090,65.430,145.508,162.598,0.000
1659298146.762,143.555,68.848,153.320,167.480,0.000
1659298146.766,156.738,76.660,151.367,181.641,0.000
1659298146.770,156.738,75.195,147.461,179.199,0.000
1659298146.774,146.484,69.824,145.996,166.504,0.000
1659298146.778,147.461,62.988,144.531,171.387,0.000
1659298146.781,151.855,54.199,140.625,177.734,0.000
1659298146.785,153.320,58.594,136.719,173.828,0.000
1659298146.789,141.602,63.965,139.648,162.109,0.000
1659298146.793,134.277,60.547,145.508,165.527,0.000
1659298146.797,139.648,63.477,143.066,170.410,0.000
1659298146.801,150.879,59.570,145.508,182.129,0.000
1659298146.805,152.344,58.105,148.438,182.129,0.000
1659298146.809,148.926,68.359,140.625,181.641,0.000
1659298146.813,147.461,67.871,134.766,173.828,0.000
1659298146.817,152.344,62.500,144.043,179.688,0.000
1659298146.821,146.484,56.641,144.043,186.523,0.000
1659298146.824,144.043,50.293,139.160,174.316,0.000
1659298146.828,150.391,63.477,146.973,177.734,0.000
1659298146.832,164.551,78.125,144.043,197.266,0.000
1659298146.836,166.504,74.707,141.602,201.660,0.000
1659298146.840,156.250,66.895,144.531,187.988,0.000
1659298146.844,151.855,59.082,139.648,176.758,0.000
1659298146.848,153.320,52.734,139.160,179.688,0.000
1659298146.852,166.016,52.734,146.484,190.430,0.000
1659298146.856,159.180,58.594,143.066,172.363,0.000
1659298146.860,145.996,53.711,141.113,160.156,0.000
1659298146.864,154.297,57.617,142.578,174.805,0.000
1659298146.868,165.039,61.523,144.043,194.336,0.000
1659298146.872,149.414,51.270,146.484,174.316,0.000
1659298146.876,144.531,58.105,149.902,159.668,0.000
1659298146.879,153.320,68.848,152.832,169.434,0.000
1659298146.883,156.250,67.383,148.926,174.805,0.000
1659298146.887,156.250,70.312,144.043,166.016,0.000
1659298146.891,151.855,68.359,145.020,148.438,0.000
1659298146.895,147.949,68.848,143.066,150.391,0.000
1659298146.899,157.227,71.289,131.348,172.363,0.000
1659298146.903,161.133,58.105,126.465,175.293,0.000
1659298146.907,145.508,49.316,130.371,152.832,0.000
1659298146.911,132.324,55.176,126.953,142.578,0.000
1659298146.915,137.207,63.477,124.023,153.809,0.000
1659298146.919,141.602,56.641,125.000,162.109,0.000
1659298146.922,121.094,46.387,125.000,149.414,0.000
1659298146.926,111.816,47.363,121.094,140.625,0.000
1659298146.930,111.816,45.410,118.164,146.973,0.000
1659298146.934,118.652,44.434,122.070,153.809,0.000
1659298146.938,121.094,44.922,130.859,147.461,0.000
1659298146.942,118.652,39.062,125.977,136.719,0.000
1659298146.946,120.117,38.574,112.793,135.742,0.000
1659298146.950,137.207,38.574,107.422,139.160,0.000
1659298146.954,143.555,37.109,107.422,136.230,0.000
1659298146.958,131.348,37.109,108.887,126.465,0.000
1659298146.962,127.930,40.527,106.934,129.883,0.000
1659298146.965,136.230,41.504,108.398,147.461,0.000
1659298146.969,147.949,43.945,111.816,166.992,0.000
1659298146.973,138.184,47.363,105.469,152.832,0.000
1659298146.977,124.512,40.039,99.121,134.277,0.000
1659298146.981,127.930,35.645,103.027,140.137,0.000
1659298146.985,135.254,34.668,107.422,151.855,0.000
1659298146.989,137.207,36.133,113.770,158.691,0.000
1659298146.993,131.836,26.367,109.375,148.926,0.000
1659298146.997,129.395,27.344,104.492,144.043,0.000
1659298147.000,140.137,39.551,106.445,158.203,0.000
1659298147.005,143.066,41.992,112.793,175.293,0.000
1659298147.008,136.719,45.898,116.211,173.340,0.000
1659298147.012,129.883,39.551,112.793,168.457,0.000
1659298147.016,142.090,32.715,111.816,173.828,0.000
1659298147.020,140.625,32.227,106.934,155.762,0.000
1659298147.024,125.000,29.297,105.957,142.090,0.000
1659298147.028,129.395,35.645,111.816,150.391,0.000
1659298147.032,130.371,44.922,111.328,161.621,0.000
1659298147.036,127.930,39.062,104.492,171.875,0.000
1659298147.040,120.117,28.809,102.539,146.484,0.000
1659298147.044,123.047,35.645,107.910,138.184,0.000
1659298147.047,135.742,45.410,110.840,151.367,0.000
1659298147.052,144.043,48.340,111.816,158.203,0.000
1659298147.055,140.137,47.363,117.676,165.039,0.000
1659298147.059,130.859,45.898,121.094,161.621,0.000
1659298147.063,131.348,49.805,111.328,155.273,0.000
1659298147.067,139.160,46.875,105.957,162.598,0.000
1659298147.071,135.742,37.109,108.398,162.109,0.000
1659298147.075,126.953,36.133,116.211,155.762,0.000
1659298147.079,122.070,50.781,125.977,156.250,0.000
1659298147.083,128.906,57.617,117.188,160.156,0.000
1659298147.087,130.371,50.293,108.887,163.574,0.000
1659298147.091,118.652,46.875,116.699,157.227,0.000
1659298147.094,117.676,45.898,115.234,155.273,0.000
1659298147.098,121.582,43.945,115.723,164.062,0.000
1659298147.102,127.930,38.574,114.258,170.898,0.000
1659298147.106,122.559,35.156,107.422,149.414,0.000
1659298147.110,117.188,34.180,110.352,140.137,0.000
1659298147.114,123.047,32.715,108.398,145.020,0.000
1659298147.118,131.836,31.250,103.516,162.109,0.000
1659298147.122,126.465,24.414,106.934,157.227,0.000
1659298147.126,125.488,20.020,108.887,143.066,0.000
1659298147.130,125.000,26.367,100.586,154.297,0.000
1659298147.133,137.207,43.457,101.562,181.641,0.000
1659298147.137,139.648,44.434,109.863,181.641,0.000
1659298147.141,126.953,30.273,110.840,169.922,0.000
1659298147.145,136.719,42.969,112.305,187.012,0.000
1659298147.149,143.555,54.199,114.746,187.988,0.000
1659298147.153,141.602,51.270,112.305,178.711,0.000
1659298147.157,132.812,45.898,104.980,177.246,0.000
1659298147.161,120.605,37.109,105.469,166.992,0.000
1659298147.165,125.977,29.297,112.793,178.223,0.000
1659298147.169,142.090,32.227,114.258,208.984,0.000
1659298147.173,122.559,47.363,104.004,184.570,0.000
1659298147.176,104.004,48.828,97.656,153.320,0.000
1659298147.180,121.094,46.387,100.098,164.551,0.000
1659298147.184,133.789,52.734,104.492,187.988,0.000
1659298147.188,129.883,52.734,107.422,195.801,0.000
1659298147.192,136.719,54.199,107.422,183.594,0.000
1659298147.196,141.113,55.664,109.375,190.430,0.000
1659298147.200,151.367,57.129,116.211,210.938,0.000
1659298147.204,148.438,66.895,112.793,210.938,0.000
1659298147.208,133.789,70.312,108.887,197.754,0.000
1659298147.212,140.625,62.988,111.816,203.125,0.000
1659298147.216,163.086,58.594,109.375,213.379,0.000
1659298147.219,166.504,65.918,114.258,215.332,0.000
1659298147.223,148.438,66.406,115.234,200.684,0.000
1659298147.227,139.160,63.477,109.863,204.590,0.000
1659298147.231,145.020,67.871,107.422,208.984,0.000
1659298147.235,160.645,60.547,110.840,205.078,0.000
1659298147.239,152.344,55.664,112.305,202.637,0.000
1659298147.243,145.020,65.430,113.770,190.430,0.000
1659298147.247,151.367,67.871,119.141,185.547,0.000
1659298147.251,156.738,62.500,115.723,196.777,0.000
1659298147.255,152.344,61.523,121.582,203.613,0.000
1659298147.259,149.414,67.383,125.000,201.172,0.000
1659298147.262,160.645,71.289,124.512,199.707,0.000
1659298147.266,172.363,69.824,122.559,203.613,0.000
1659298147.270,170.898,67.871,114.258,209.961,0.000
1659298147.274,154.297,69.336,117.676,203.125,0.000
1659298147.278,134.766,58.594,114.258,181.152,0.000
1659298147.282,140.625,50.781,114.258,184.082,0.000
1659298147.286,154.297,51.270,127.441,199.219,0.000
1659298147.290,141.113,54.199,128.418,187.500,0.000
1659298147.294,133.301,58.594,120.117,178.711,0.000
1659298147.298,145.996,56.641,120.605,177.734,0.000
1659298147.302,156.250,52.246,117.188,190.430,0.000
1659298147.305,146.973,51.758,112.305,193.359,0.000
1659298147.309,140.137,54.688,111.816,179.199,0.000
1659298147.313,141.113,55.664,106.934,166.504,0.000
1659298147.317,153.809,64.941,114.746,187.988,0.000
1659298147.321,154.297,63.965,117.188,196.289,0.000
1659298147.325,143.066,47.852,102.539,161.133,0.000
1659298147.329,151.855,43.945,106.445,155.762,0.000
1659298147.333,155.762,43.945,116.699,170.410,0.000
1659298147.337,146.484,42.969,111.328,168.457,0.000
1659298147.341,136.230,45.410,108.398,160.645,0.000
1659298147.344,129.395,52.734,107.422,164.551,0.000
1659298147.348,127.930,54.199,104.492,165.039,0.000
1659298147.352,129.395,41.504,104.004,163.086,0.000
1659298147.356,125.000,35.156,103.516,151.855,0.000
1659298147.360,125.000,35.645,103.027,145.020,0.000
1659298147.364,127.930,39.551,103.516,160.156,0.000
1659298147.368,125.488,34.180,95.703,164.551,0.000
1659298147.372,112.305,16.602,88.867,151.367,0.000
1659298147.376,105.957,20.508,95.215,149.414,0.000
1659298147.380,116.211,32.227,100.586,155.273,0.000
1659298147.384,123.535,39.551,92.285,163.086,0.000
1659298147.387,120.117,45.410,89.844,151.855,0.000
1659298147.391,118.652,46.387,95.703,137.695,0.000
1659298147.395,119.141,47.363,99.121,145.020,0.000
1659298147.399,132.812,43.945,103.027,161.133,0.000
1659298147.403,136.719,37.109,104.492,162.109,0.000
1659298147.407,120.117,36.621,97.656,147.461,0.000
1659298147.411,117.188,37.598,92.285,149.902,0.000
1659298147.415,127.930,33.203,90.820,147.461,0.000
1659298147.419,138.184,23.438,92.773,158.203,0.000
1659298147.423,125.488,20.508,92.285,154.297,0.000
1659298147.427,115.234,41.016,89.355,149.902,0.000
1659298147.430,117.676,46.387,95.215,158.691,0.000
1659298147.434,123.535,37.109,96.680,156.738,0.000
1659298147.438,120.605,34.180,88.379,152.832,0.000
1659298147.442,113.770,31.738,82.520,137.695,0.000
1659298147.446,111.816,33.203,87.402,145.020,0.000
1659298147.450,122.559,31.738,88.867,169.434,0.000
1659298147.454,118.652,19.531,84.961,159.668,0.000
1659298147.458,104.004,12.695,77.637,129.395,0.000
1659298147.462,105.957,18.555,73.730,124.512,0.000
1659298147.465,113.281,25.391,73.730,139.648,0.000
1659298147.469,116.211,24.414,77.148,145.508,0.000
1659298147.473,103.027,15.137,76.660,120.605,0.000
1659298147.477,100.586,20.996,79.102,110.352,0.000
1659298147.481,107.910,22.461,78.613,123.535,0.000
1659298147.485,119.629,12.695,73.242,142.090,0.000
1659298147.489,124.023,24.414,79.590,142.578,0.000
1659298147.493,117.188,30.762,78.125,135.254,0.000
1659298147.497,118.652,30.762,79.590,158.203,0.000
1659298147.501,125.977,28.320,83.008,176.270,0.000
1659298147.505,116.211,26.367,78.613,146.484,0.000
1659298147.508,115.723,34.180,80.078,128.906,0.000
1659298147.512,121.582,39.062,80.078,136.230,0.000
1659298147.516,120.117,34.668,77.637,147.949,0.000
1659298147.520,121.582,16.113,72.266,147.461,0.000
1659298147.524,113.770,6.836,68.359,128.906,0.000
1659298147.528,118.164,24.902,75.684,136.230,0.000
1659298147.532,138.672,31.250,90.332,169.434,0.000
1659298147.536,130.371,15.137,91.309,173.828,0.000
1659298147.540,100.586,12.207,84.961,140.137,0.000
1659298147.544,101.562,12.207,82.031,136.230,0.000
1659298147.548,112.305,5.859,72.754,142.578,0.000
1659298147.551,110.840,13.672,73.730,145.508,0.000
1659298147.555,103.516,17.090,81.543,139.648,0.000
1659298147.559,92.773,14.648,76.660,124.023,0.000
1659298147.563,99.609,15.625,73.242,127.441,0.000
1659298147.567,116.699,12.207,70.801,148.438,0.000
1659298147.571,117.676,19.043,71.289,145.020,0.000
1659298147.575,113.281,20.996,79.102,131.348,0.000
1659298147.579,120.605,16.113,83.008,138.184,0.000
1659298147.583,129.883,16.602,87.891,143.555,0.000
1659298147.587,132.812,22.461,94.238,151.855,0.000
1659298147.590,122.070,25.879,93.750,151.367,0.000
1659298147.594,110.352,23.438,83.984,129.395,0.000
1659298147.598,118.652,28.809,80.566,134.277,0.000
1659298147.602,128.418,37.598,83.496,153.320,0.000
1659298147.606,117.676,32.715,76.660,137.695,0.000
1659298147.610,115.234,26.367,66.895,119.141,0.000
1659298147.614,121.582,21.973,71.289,122.559,0.000
1659298147.618,133.301,26.855,79.102,133.789,0.000
1659298147.622,122.559,28.809,72.754,124.023,0.000
1659298147.626,104.492,29.785,67.871,119.629,0.000
1659298147.630,112.305,27.344,70.312,129.395,0.000
1659298147.633,119.629,20.020,67.871,139.648,0.000
1659298147.637,110.352,25.391,64.453,140.625,0.000
1659298147.641,101.562,26.367,60.547,135.254,0.000
1659298147.645,110.840,27.344,66.406,138.672,0.000
1659298147.649,122.559,30.273,74.219,149.414,0.000
1659298147.653,114.258,18.555,65.430,148.438,0.000
1659298147.657,105.469,10.254,48.340,129.883,0.000
1659298147.661,113.770,11.230,51.758,129.883,0.000
1659298147.665,119.629,17.578,63.965,149.414,0.000
1659298147.669,118.164,19.531,55.176,151.367,0.000
1659298147.673,110.352,27.832,54.199,145.020,0.000
1659298147.676,106.445,36.621,52.246,141.113,0.000
1659298147.680,102.539,27.832,44.434,138.672,0.000
1659298147.684,106.445,20.508,49.316,150.879,0.000
1659298147.688,104.492,22.461,49.316,132.812,0.000
1659298147.692,98.633,19.531,44.434,120.117,0.000
1659298147.696,101.562,12.207,41.016,129.395,0.000
1659298147.700,109.863,11.230,39.062,134.766,0.000
1659298147.704,112.793,18.555,42.969,135.254,0.000
1659298147.708,111.328,21.973,48.828,125.488,0.000
1659298147.712,109.375,17.578,47.363,127.930,0.000
1659298147.716,112.793,18.066,44.434,130.371,0.000
1659298147.719,114.746,17.578,47.363,137.695,0.000
1659298147.723,102.051,20.508,51.758,136.719,0.000
1659298147.727,97.656,27.344,60.547,124.512,0.000
1659298147.731,107.910,29.785,63.477,124.023,0.000
1659298147.735,107.910,27.344,52.734,131.836,0.000
1659298147.739,100.586,30.762,54.199,131.836,0.000
1659298147.743,104.980,26.367,56.152,120.605,0.000
1659298147.747,111.328,20.020,48.828,119.629,0.000
1659298147.751,117.188,28.809,43.945,131.348,0.000
1659298147.755,117.188,30.273,47.852,126.465,0.000
1659298147.758,117.188,19.043,52.246,120.117,0.000
1659298147.762,110.840,17.578,44.434,117.676,0.000
1659298147.766,107.910,20.996,42.480,135.254,0.000
1659298147.770,116.211,18.066,47.363,145.996,0.000
1659298147.774,108.887,13.184,47.852,129.395,0.000
1659298147.778,101.562,10.254,50.293,125.488,0.000
1659298147.782,106.445,14.160,55.664,132.324,0.000
1659298147.786,96.191,14.160,50.293,133.789,0.000
1659298147.790,85.449,11.719,41.016,109.375,0.000
1659298147.794,89.355,13.184,43.457,100.098,0.000
1659298147.797,98.145,20.996,46.875,114.746,0.000
1659298147.801,109.375,20.020,46.387,133.301,0.000
1659298147.805,102.539,19.043,50.293,133.301,0.000
1659298147.809,98.633,13.184,51.270,118.652,0.000
1659298147.813,99.609,-8.301,41.992,116.699,0.000
1659298147.817,101.562,-7.812,34.668,125.977,0.000
1659298147.821,98.145,8.301,33.203,132.324,0.000
1659298147.825,87.891,13.184,35.156,121.582,0.000
1659298147.829,94.727,15.625,43.945,123.535,0.000
1659298147.833,104.492,11.230,44.434,131.348,0.000
1659298147.837,108.887,6.348,49.316,131.836,0.000
1659298147.840,103.516,9.277,58.105,128.906,0.000
1659298147.844,97.168,14.648,53.223,119.629,0.000
1659298147.848,103.516,15.625,49.805,125.000,0.000
1659298147.852,112.793,7.324,51.270,147.461,0.000
1659298147.856,101.074,2.441,47.363,132.324,0.000
1659298147.860,84.473,4.883,39.551,105.957,0.000
1659298147.864,91.309,10.742,41.992,112.793,0.000
1659298147.868,98.633,9.277,40.527,122.559,0.000
1659298147.872,89.844,-2.441,31.250,120.605,0.000
1659298147.876,85.938,-5.859,41.992,127.930,0.000
1659298147.879,89.355,5.371,54.199,127.930,0.000
1659298147.883,102.051,15.625,57.617,140.137,0.000
1659298147.887,103.027,10.254,63.477,151.855,0.000
1659298147.891,96.680,7.812,62.500,131.348,0.000
1659298147.895,97.656,6.348,57.129,113.281,0.000
1659298147.899,105.469,2.930,61.035,133.789,0.000
1659298147.903,112.305,7.812,62.012,147.949,0.000
1659298147.907,105.469,14.648,55.664,119.629,0.000
1659298147.911,97.168,19.043,53.711,118.652,0.000
1659298147.915,94.238,17.090,53.711,137.207,0.000
1659298147.919,98.145,12.695,54.199,148.438,0.000
1659298147.922,90.820,3.906,52.734,135.254,0.000
1659298147.926,94.238,0.000,49.805,129.395,0.000
1659298147.930,101.562,4.395,60.059,140.625,0.000
1659298147.934,105.957,-5.371,68.848,143.555,0.000
1659298147.938,103.516,-18.555,63.477,128.418,0.000
1659298147.942,91.309,-0.488,63.477,114.258,0.000
1659298147.946,89.844,9.277,60.547,119.629,0.000
1659298147.950,101.074,2.930,60.547,125.977,0.000
1659298147.954,86.914,1.953,58.105,116.699,0.000
1659298147.958,78.613,6.348,56.152,104.004,0.000
1659298147.961,87.402,13.672,59.570,114.258,0.000
1659298147.965,97.656,8.301,55.176,123.047,0.000
1659298147.969,104.980,-6.348,46.387,115.723,0.000
1659298147.973,90.820,-4.883,41.992,107.910,0.000
1659298147.977,97.168,11.230,38.086,113.281,0.000
1659298147.981,119.629,14.160,40.039,128.906,0.000
1659298147.985,114.746,2.441,47.852,134.766,0.000
1659298147.989,91.797,1.465,48.828,109.863,0.000
1659298147.993,86.426,6.836,51.270,103.516,0.000
1659298147.997,98.145,6.348,54.199,114.746,0.000
1659298148.001,106.934,-1.465,53.223,131.348,0.000
1659298148.004,100.586,-4.395,47.363,133.301,0.000
1659298148.008,92.773,-2.441,40.039,113.281,0.000
1659298148.012,93.750,1.953,41.504,104.004,0.000
1659298148.016,100.586,-5.371,47.363,116.211,0.000
1659298148.020,102.539,-5.859,50.293,123.535,0.000
1659298148.024,94.727,-3.418,54.199,115.234,0.000
1659298148.028,84.473,-10.254,54.688,109.863,0.000
1659298148.032,89.844,-6.836,52.246,118.164,0.000
1659298148.036,102.051,-16.113,43.457,123.047,0.000
1659298148.040,94.238,-18.066,40.039,104.004,0.000
1659298148.044,83.984,-6.836,39.062,97.168,0.000
1659298148.047,88.867,-3.418,42.480,110.352,0.000
1659298148.051,90.332,-7.324,45.898,121.094,0.000
1659298148.055,83.496,-10.742,44.922,116.699,0.000
1659298148.059,80.078,-17.090,45.410,114.746,0.000
1659298148.063,84.961,-13.184,49.316,123.047,0.000
1659298148.067,99.121,-0.977,49.316,135.742,0.000
1659298148.071,93.750,2.441,45.898,134.277,0.000
1659298148.075,88.867,-0.488,44.434,111.328,0.000
1659298148.079,93.262,1.465,45.898,106.934,0.000
1659298148.083,101.562,4.395,46.875,124.512,0.000
1659298148.087,104.004,-6.348,43.457,132.812,0.000
1659298148.090,92.285,-11.719,37.598,107.910,0.000
1659298148.094,92.285,-12.207,38.574,99.609,0.000
1659298148.098,92.773,-14.648,37.598,110.352,0.000
1659298148.102,92.285,-4.883,34.180,109.375,0.000
1659298148.106,87.402,-2.441,35.645,102.539,0.000
1659298148.110,82.520,-10.254,37.109,103.027,0.000
1659298148.114,89.355,-17.090,31.738,112.305,0.000
1659298148.118,94.727,-16.602,28.809,130.859,0.000
1659298148.122,85.938,-10.254,34.180,110.840,0.000
1659298148.125,84.473,-3.906,36.621,91.797,0.000
1659298148.130,82.031,-11.230,28.320,99.609,0.000
1659298148.133,83.496,-18.555,28.809,100.586,0.000
1659298148.137,79.102,-19.043,28.809,93.262,0.000
1659298148.141,69.824,-7.324,24.902,88.379,0.000
1659298148.145,79.102,-0.488,25.391,102.539,0.000
1659298148.149,92.285,-9.277,28.809,113.770,0.000
1659298148.153,87.891,-10.254,36.133,106.445,0.000
1659298148.157,79.102,-1.953,43.457,98.633,0.000
1659298148.161,81.055,-0.488,46.875,112.305,0.000
1659298148.165,81.543,-2.930,45.410,112.793,0.000
1659298148.169,83.008,-6.836,46.387,116.211,0.000
1659298148.172,76.660,-5.859,50.781,112.793,0.000
1659298148.176,72.754,-10.254,45.410,99.121,0.000
1659298148.180,76.172,-16.602,41.992,89.844,0.000
1659298148.184,81.543,-13.184,45.410,105.957,0.000
1659298148.188,75.684,-3.906,40.527,113.770,0.000
1659298148.192,65.918,-2.930,36.133,98.633,0.000
1659298148.196,75.195,-11.230,40.039,100.586,0.000
1659298148.200,86.426,-17.090,29.297,118.164,0.000
1659298148.204,84.473,-7.324,29.297,115.234,0.000
1659298148.208,78.613,-6.836,30.762,93.750,0.000
1659298148.211,78.125,-18.066,23.926,92.285,0.000
1659298148.215,81.055,-21.484,27.344,102.051,0.000
1659298148.219,80.078,-19.043,35.156,117.188,0.000
1659298148.223,69.336,-16.113,31.250,94.727,0.000
1659298148.227,67.383,-12.695,26.855,80.566,0.000
1659298148.231,77.148,-12.695,29.297,98.145,0.000
1659298148.235,88.379,-18.555,31.250,112.793,0.000
1659298148.239,76.660,-23.926,33.203,105.469,0.000
1659298148.243,67.383,-16.602,32.227,84.961,0.000
1659298148.247,75.195,-5.371,29.297,92.773,0.000
1659298148.251,80.566,-11.719,29.297,117.676,0.000
1659298148.254,75.195,-20.508,27.344,104.492,0.000
1659298148.258,74.219,-15.137,25.879,80.078,0.000
1659298148.262,82.031,-19.043,24.902,84.473,0.000
1659298148.266,86.914,-20.020,25.391,102.539,0.000
1659298148.270,95.703,-10.742,30.762,115.234,0.000
1659298148.274,80.078,-13.184,29.785,94.238,0.000
1659298148.278,62.988,-17.090,34.668,90.332,0.000
1659298148.282,66.895,-11.719,40.039,111.328,0.000
1659298148.286,83.008,-6.836,41.504,115.234,0.000
1659298148.290,82.031,-7.812,45.410,108.887,0.000
1659298148.294,66.406,-20.020,43.457,118.652,0.000
1659298148.298,62.500,-24.414,37.109,115.723,0.000
1659298148.301,76.172,-19.043,35.156,113.770,0.000
1659298148.305,79.102,-10.254,41.504,117.188,0.000
1659298148.309,76.172,-7.812,40.527,109.375,0.000
1659298148.313,82.520,-12.207,41.992,121.582,0.000
1659298148.317,94.238,-5.859,52.246,162.109,0.000
1659298148.321,91.797,4.395,56.152,162.109,0.000
1659298148.325,82.520,3.906,56.152,141.113,0.000
1659298148.329,84.961,-2.930,56.152,145.020,0.000
1659298148.333,103.516,-5.859,61.523,162.598,0.000
1659298148.337,103.027,0.000,69.824,174.316,0.000
1659298148.340,81.055,-3.418,64.941,155.762,0.000
1659298148.344,92.285,-10.254,60.059,141.602,0.000
1659298148.348,101.562,-3.418,68.848,148.926,0.000
1659298148.352,103.027,3.418,71.777,164.062,0.000
1659298148.356,104.004,2.441,72.266,162.109,0.000
1659298148.360,103.516,0.000,73.242,155.762,0.000
1659298148.364,104.004,4.395,71.777,150.879,0.000
1659298148.368,107.910,8.301,74.219,166.992,0.000
1659298148.372,95.215,-3.418,74.707,165.039,0.000
1659298148.376,92.773,1.465,67.871,145.508,0.000
1659298148.380,107.910,19.531,70.801,150.879,0.000
1659298148.383,109.375,21.484,71.777,169.434,0.000
1659298148.387,102.051,24.902,65.430,173.340,0.000
1659298148.391,102.539,37.109,75.195,155.762,0.000
1659298148.395,105.957,39.062,84.473,143.066,0.000
1659298148.399,116.211,32.715,81.055,165.039,0.000
1659298148.403,110.840,20.508,72.266,163.574,0.000
1659298148.407,98.633,7.812,70.312,140.137,0.000
1659298148.411,109.375,3.906,70.801,141.602,0.000
1659298148.415,119.629,6.348,72.754,149.902,0.000
1659298148.419,122.070,14.160,67.871,158.691,0.000
1659298148.423,113.281,18.555,74.707,154.297,0.000
1659298148.426,110.352,23.926,86.426,146.484,0.000
1659298148.430,105.957,24.902,78.613,129.395,0.000
1659298148.434,109.375,27.344,71.289,135.254,0.000
1659298148.438,107.910,33.203,73.242,145.508,0.000
1659298148.442,104.980,33.691,80.078,129.395,0.000
1659298148.446,106.445,25.391,75.195,121.094,0.000
1659298148.450,116.699,18.555,72.266,113.770,0.000
1659298148.454,116.699,19.531,81.055,116.699,0.000
1659298148.458,102.539,19.043,86.914,116.211,0.000
1659298148.462,103.516,13.184,83.984,109.863,0.000
1659298148.466,110.352,4.883,83.008,119.629,0.000
1659298148.469,104.980,5.371,81.543,132.324,0.000
1659298148.473,91.309,8.789,72.266,111.328,0.000
1659298148.477,80.078,-6.836,66.895,87.402,0.000
1659298148.481,76.172,-20.020,69.336,94.727,0.000
1659298148.485,86.914,-5.371,73.730,111.328,0.000
1659298148.489,83.008,19.043,76.172,110.352,0.000
1659298148.493,78.125,11.719,68.848,94.238,0.000
1659298148.497,83.008,-1.465,57.617,90.332,0.000
1659298148.501,85.938,0.488,56.152,102.539,0.000
1659298148.505,80.566,-1.465,64.941,101.562,0.000
1659298148.509,72.266,-4.395,68.359,91.797,0.000
1659298148.512,71.289,-8.301,62.012,91.797,0.000
1659298148.516,76.660,-0.977,58.105,118.164,0.000
1659298148.520,73.242,0.977,57.129,109.863,0.000
1659298148.524,66.895,3.906,60.547,79.102,0.000
1659298148.528,69.336,-0.977,61.035,80.078,0.000
1659298148.532,73.242,-5.859,50.781,86.914,0.000
1659298148.536,78.613,9.766,58.594,105.957,0.000
1659298148.540,68.848,11.719,58.105,88.379,0.000
1659298148.544,69.824,0.977,56.152,67.383,0.000
1659298148.548,79.102,-4.883,65.918,81.543,0.000
1659298148.552,78.613,-3.906,62.988,98.145,0.000
1659298148.555,73.242,0.488,63.477,90.820,0.000
1659298148.559,84.961,9.766,67.383,83.496,0.000
1659298148.563,88.379,12.207,63.965,98.633,0.000
1659298148.567,87.402,-1.465,62.988,115.723,0.000
1659298148.571,86.914,-1.953,65.918,116.211,0.000
1659298148.575,80.566,5.371,66.406,105.957,0.000
1659298148.579,83.496,4.883,71.777,116.699,0.000
1659298148.583,89.844,5.371,70.801,129.395,0.000
1659298148.587,97.656,5.371,69.824,124.023,0.000
1659298148.590,83.984,-2.441,70.801,104.980,0.000
1659298148.594,76.172,0.000,64.453,104.980,0.000
1659298148.598,89.844,-1.465,56.641,109.375,0.000
1659298148.602,97.168,-11.230,58.105,117.188,0.000
1659298148.606,86.426,-5.371,59.082,105.469,0.000
1659298148.610,82.031,-0.488,61.035,87.891,0.000
1659298148.614,82.520,-1.465,65.430,91.309,0.000
1659298148.618,79.590,-1.465,62.988,105.957,0.000
1659298148.622,76.660,4.395,63.965,121.582,0.000
1659298148.626,75.684,2.930,60.059,125.488,0.000
1659298148.630,79.590,0.000,54.688,113.281,0.000
1659298148.633,97.168,10.254,63.965,129.883,0.000
1659298148.637,100.098,8.789,67.871,132.812,0.000
1659298148.641,93.750,-5.371,69.824,114.258,0.000
1659298148.645,96.680,-2.441,74.707,108.887,0.000
1659298148.649,98.145,16.113,73.242,119.141,0.000
1659298148.653,101.562,16.602,66.406,130.371,0.000
1659298148.657,100.098,16.113,65.430,121.582,0.000
1659298148.661,103.027,18.066,65.918,116.211,0.000
1659298148.665,110.840,17.578,66.406,128.418,0.000
1659298148.669,114.258,21.973,63.965,141.113,0.000
1659298148.673,92.773,21.484,61.523,119.141,0.000
1659298148.676,84.473,16.602,65.918,111.328,0.000
1659298148.680,91.797,9.277,63.965,119.629,0.000
1659298148.684,89.844,1.465,57.617,125.977,0.000
1659298148.688,89.355,-1.465,61.523,135.254,0.000
1659298148.692,96.191,0.488,66.895,127.441,0.000
1659298148.696,93.750,10.742,73.242,116.211,0.000
1659298148.700,86.426,14.648,71.777,121.094,0.000
1659298148.704,98.145,15.137,65.918,135.254,0.000
1659298148.708,103.027,18.555,69.336,131.836,0.000
1659298148.712,100.586,20.020,74.219,128.906,0.000
1659298148.716,108.398,22.949,72.754,139.648,0.000
1659298148.719,112.305,23.926,67.383,141.602,0.000
1659298148.723,99.121,23.438,62.012,123.535,0.000
1659298148.727,91.797,20.508,68.848,116.211,0.000
1659298148.731,95.703,18.066,74.219,132.324,0.000
1659298148.735,104.492,11.719,61.523,140.137,0.000
1659298148.739,99.609,8.301,57.129,120.605,0.000
1659298148.743,92.285,10.254,66.406,114.746,0.000
1659298148.747,94.238,13.184,67.383,121.094,0.000
1659298148.751,105.469,12.207,66.406,130.859,0.000
1659298148.755,110.352,16.602,70.801,136.230,0.000
1659298148.759,103.027,12.207,76.660,135.254,0.000
1659298148.762,98.633,11.719,77.148,125.488,0.000
1659298148.766,107.422,18.066,75.195,133.301,0.000
1659298148.770,106.934,21.973,73.242,142.090,0.000
1659298148.774,91.797,22.461,69.336,125.977,0.000
1659298148.778,82.520,12.695,59.570,110.352,0.000
1659298148.782,93.750,1.465,55.176,112.793,0.000
1659298148.786,103.027,-2.441,58.105,121.094,0.000
1659298148.790,90.332,12.207,52.734,109.863,0.000
1659298148.794,90.820,21.973,56.152,109.375,0.000
1659298148.798,103.516,16.113,69.824,121.094,0.000
1659298148.802,116.699,16.113,71.777,131.348,0.000
1659298148.805,111.816,26.367,69.336,121.582,0.000
1659298148.809,106.445,29.297,68.848,111.328,0.000
1659298148.813,114.258,27.344,64.453,117.188,0.000
1659298148.817,119.629,18.555,63.965,128.906,0.000
1659298148.821,107.910,14.648,61.523,121.582,0.000
1659298148.825,93.750,18.066,48.340,95.215,0.000
1659298148.829,87.891,17.090,45.410,96.191,0.000
1659298148.833,91.309,18.555,52.734,105.957,0.000
1659298148.837,98.145,14.648,52.734,107.422,0.000
1659298148.841,92.285,11.230,51.758,94.238,0.000
1659298148.845,88.867,15.625,50.781,90.820,0.000
1659298148.848,87.891,6.348,44.922,104.492,0.000
1659298148.852,95.215,-2.441,46.875,117.188,0.000
1659298148.856,95.215,5.859,45.410,103.516,0.000
1659298148.860,89.355,11.230,39.551,92.285,0.000
1659298148.864,92.285,15.137,40.527,99.609,0.000
1659298148.868,97.656,19.043,40.039,112.793,0.000
1659298148.872,93.262,17.578,35.645,112.305,0.000
1659298148.876,85.938,6.348,35.156,111.816,0.000
1659298148.880,91.309,7.812,33.691,119.141,0.000
1659298148.884,99.609,14.160,26.855,115.723,0.000
1659298148.888,97.168,9.277,31.738,107.910,0.000
1659298148.891,85.938,-0.977,40.527,95.215,0.000
1659298148.895,83.008,-5.371,39.062,97.656,0.000
1659298148.899,87.402,-10.254,29.297,107.422,0.000
1659298148.903,88.867,-12.207,25.879,110.840,0.000
1659298148.907,77.637,-10.254,32.227,108.398,0.000
1659298148.911,70.312,-10.254,36.621,99.609,0.000
1659298148.915,77.148,0.000,33.203,92.285,0.000
1659298148.919,89.844,6.348,36.133,104.492,0.000
1659298148.923,85.938,-1.953,32.227,97.168,0.000
1659298148.927,77.637,-8.301,29.297,91.797,0.000
1659298148.931,80.566,-9.766,31.738,95.215,0.000
1659298148.934,93.750,-9.277,35.645,104.492,0.000
1659298148.938,95.215,-5.859,40.039,114.258,0.000
1659298148.942,84.961,-9.277,36.621,104.004,0.000
1659298148.946,71.289,-11.719,22.461,95.703,0.000
1659298148.950,78.125,-6.348,20.996,104.492,0.000
1659298148.954,82.520,-0.488,29.297,101.562,0.000
1659298148.958,69.336,-0.977,35.645,83.496,0.000
1659298148.962,63.477,0.488,37.598,77.148,0.000
1659298148.966,64.453,-2.441,32.715,85.938,0.000
1659298148.969,75.195,-2.930,37.109,96.191,0.000
1659298148.974,69.336,-5.371,38.086,80.078,0.000
1659298148.978,69.336,-9.766,36.133,74.219,0.000
1659298148.981,87.891,0.000,36.133,89.355,0.000
1659298148.985,96.191,3.906,34.180,102.051,0.000
1659298148.989,82.520,-1.953,36.621,104.492,0.000
1659298148.993,75.195,0.000,38.086,105.469,0.000
1659298148.997,84.473,11.230,36.133,106.445,0.000
1659298149.001,86.426,8.301,37.109,120.605,0.000
1659298149.005,79.102,-0.488,36.621,104.492,0.000
1659298149.009,71.289,-0.488,36.133,90.820,0.000
1659298149.013,83.008,3.906,39.551,103.027,0.000
1659298149.016,91.797,3.418,35.156,107.422,0.000
1659298149.020,84.961,1.953,35.645,113.281,0.000
1659298149.024,79.102,3.906,35.645,107.422,0.000
1659298149.028,73.730,1.953,30.273,93.750,0.000
1659298149.032,76.660,-5.859,26.367,101.562,0.000
1659298149.036,87.402,-0.488,31.738,112.305,0.000
1659298149.040,89.844,8.789,40.527,106.445,0.000
1659298149.044,88.379,2.441,41.992,101.074,0.000
1659298149.048,86.426,3.906,37.109,94.727,0.000
1659298149.052,91.309,12.695,32.715,96.680,0.000
1659298149.056,86.914,8.789,39.551,99.609,0.000
1659298149.059,78.613,0.977,48.340,103.516,0.000
1659298149.063,81.543,4.883,41.016,110.840,0.000
1659298149.067,87.402,13.672,40.039,123.047,0.000
1659298149.071,89.355,12.207,45.898,131.348,0.000
1659298149.075,87.402,5.859,45.410,133.301,0.000
1659298149.079,84.473,-6.836,40.039,108.887,0.000
1659298149.083,94.727,0.000,38.086,108.398,0.000
1659298149.087,104.492,2.930,42.969,125.000,0.000
1659298149.091,99.121,1.953,36.621,106.445,0.000
1659298149.095,83.984,5.859,33.203,83.984,0.000
1659298149.098,93.262,6.836,49.805,99.121,0.000
1659298149.102,100.098,10.742,60.059,122.070,0.000
1659298149.106,81.055,7.812,51.758,107.910,0.000
1659298149.110,73.730,1.465,40.527,94.238,0.000
1659298149.114,79.590,-4.883,40.527,99.121,0.000
1659298149.118,90.820,1.953,46.875,113.770,0.000
1659298149.122,83.984,4.883,46.387,110.840,0.000
1659298149.126,76.172,2.930,37.109,96.680,0.000
1659298149.130,88.379,2.930,38.086,99.121,0.000
1659298149.134,94.727,4.883,43.457,123.047,0.000
1659298149.138,90.820,4.883,39.062,127.441,0.000
1659298149.141,95.215,-2.930,46.387,114.258,0.000
1659298149.145,107.910,6.348,54.199,123.535,0.000
1659298149.149,111.816,13.184,52.246,138.184,0.000
1659298149.153,112.793,1.953,56.641,136.719,0.000
1659298149.157,99.609,-2.930,52.246,121.094,0.000
1659298149.161,88.867,-0.488,48.340,119.629,0.000
1659298149.165,100.098,-1.465,52.246,128.906,0.000
1659298149.169,114.258,2.930,54.688,141.602,0.000
1659298149.173,109.863,11.230,55.664,134.766,0.000
1659298149.177,108.887,5.859,58.594,123.535,0.000
1659298149.181,104.004,0.488,57.129,129.883,0.000
1659298149.184,108.398,-0.488,48.340,135.742,0.000
1659298149.188,112.305,1.953,43.945,120.605,0.000
1659298149.192,102.539,7.812,49.805,109.375,0.000
1659298149.196,106.934,15.137,61.035,127.441,0.000
1659298149.200,113.770,14.648,59.082,134.766,0.000
1659298149.204,103.027,8.301,55.176,125.488,0.000
1659298149.208,85.938,9.766,57.129,106.445,0.000
1659298149.212,76.172,2.441,50.781,93.750,0.000
1659298149.216,82.520,2.930,52.246,111.328,0.000
1659298149.220,84.961,2.930,53.223,123.535,0.000
1659298149.224,82.520,0.000,56.152,107.910,0.000
1659298149.228,89.844,-1.953,59.570,100.586,0.000
1659298149.231,87.402,-3.418,46.875,101.562,0.000
1659298149.235,89.844,8.789,44.434,109.375,0.000
1659298149.239,87.402,10.742,57.617,106.445,0.000
1659298149.243,76.660,-1.953,61.035,92.773,0.000
1659298149.247,84.961,-11.230,56.152,98.145,0.000
1659298149.251,95.215,0.488,59.570,119.629,0.000
1659298149.255,97.168,8.789,65.430,122.559,0.000
1659298149.259,92.285,11.230,62.500,105.469,0.000
1659298149.263,88.379,13.672,66.406,103.516,0.000
1659298149.267,92.285,6.836,74.219,119.629,0.000
1659298149.271,95.703,3.906,77.148,130.371,0.000
1659298149.274,89.355,-2.441,72.266,122.559,0.000
1659298149.278,80.078,-1.953,62.988,111.328,0.000
1659298149.282,87.891,2.441,61.523,117.188,0.000
1659298149.286,98.633,-3.906,60.059,128.906,0.000
1659298149.290,96.191,4.883,60.059,116.211,0.000
1659298149.294,99.609,16.113,61.035,109.863,0.000
1659298149.298,104.980,12.695,61.035,124.512,0.000
1659298149.302,99.609,10.254,56.152,142.090,0.000
1659298149.306,91.797,7.324,58.594,134.277,0.000
1659298149.310,101.074,-0.488,77.148,118.652,0.000
1659298149.313,107.422,12.695,85.938,127.930,0.000
1659298149.317,100.098,19.043,82.031,144.043,0.000
1659298149.321,90.332,14.160,76.172,129.395,0.000
1659298149.325,87.891,14.648,70.801,104.492,0.000
1659298149.329,100.098,19.043,63.965,117.188,0.000
1659298149.333,97.656,16.602,59.082,126.465,0.000
1659298149.337,89.844,10.742,59.082,120.117,0.000
1659298149.341,89.844,13.672,65.430,114.746,0.000
1659298149.345,97.656,20.996,66.406,114.258,0.000
1659298149.349,108.887,19.043,57.129,107.910,0.000
1659298149.353,110.352,13.672,57.617,115.234,0.000
1659298149.357,93.262,9.277,64.453,114.746,0.000
1659298149.360,88.379,2.441,66.895,106.934,0.000
1659298149.364,93.262,5.859,59.570,113.770,0.000
1659298149.368,106.934,14.160,54.199,130.859,0.000
1659298149.372,105.957,10.254,56.152,129.883,0.000
1659298149.376,88.379,0.488,50.781,115.234,0.000
1659298149.380,86.426,0.488,45.898,101.074,0.000
1659298149.384,101.562,7.812,45.898,109.375,0.000
1659298149.388,97.656,6.348,43.945,117.676,0.000
1659298149.392,87.402,-4.883,44.434,107.422,0.000
1659298149.396,98.145,-7.324,51.270,113.770,0.000
1659298149.400,104.980,2.930,52.246,127.441,0.000
1659298149.403,102.051,13.672,55.176,133.789,0.000
1659298149.407,98.633,18.555,63.477,123.535,0.000
1659298149.411,97.656,18.555,69.824,116.211,0.000
1659298149.415,99.121,8.301,69.336,126.953,0.000
1659298149.419,106.934,2.441,68.359,145.996,0.000
1659298149.423,101.562,12.695,65.918,134.277,0.000
1659298149.427,98.633,20.508,65.430,130.371,0.000
1659298149.431,99.121,20.020,63.965,143.066,0.000
1659298149.435,108.398,18.066,65.430,146.973,0.000
1659298149.439,103.516,12.695,56.152,125.488,0.000
1659298149.443,104.492,11.719,55.176,115.234,0.000
1659298149.447,107.910,14.648,64.453,130.371,0.000
1659298149.450,109.863,8.301,59.570,140.625,0.000
1659298149.454,106.445,-1.953,61.523,145.996,0.000
1659298149.458,91.797,2.441,70.801,131.836,0.000
1659298149.462,91.309,6.348,74.707,130.859,0.000
1659298149.466,95.215,-3.418,66.895,142.090,0.000
1659298149.470,100.586,0.977,59.570,136.230,0.000
1659298149.474,92.773,10.742,57.129,119.141,0.000
1659298149.478,88.867,9.766,56.641,120.117,0.000
1659298149.482,91.797,5.859,58.105,129.395,0.000
1659298149.485,101.562,-1.953,60.059,127.441,0.000
1659298149.489,94.727,0.000,64.941,111.816,0.000
1659298149.493,78.613,4.395,68.848,108.398,0.000
1659298149.497,77.148,5.371,61.523,116.699,0.000
1659298149.501,88.379,5.371,55.176,124.512,0.000
1659298149.505,86.426,1.465,63.477,123.535,0.000
1659298149.509,73.730,-4.883,68.359,123.047,0.000
1659298149.513,74.219,-0.488,69.336,125.000,0.000
1659298149.517,89.844,6.348,71.289,138.184,0.000
1659298149.521,96.191,11.230,70.801,146.973,0.000
1659298149.525,88.867,7.324,68.848,141.602,0.000
1659298149.528,97.168,5.371,66.895,149.414,0.000
1659298149.532,110.352,19.531,76.172,163.086,0.000
1659298149.536,115.723,26.367,81.055,169.434,0.000
1659298149.540,112.793,25.879,77.637,157.715,0.000
1659298149.544,114.746,29.785,79.102,146.484,0.000
1659298149.548,123.535,32.227,83.496,157.227,0.000
1659298149.552,134.277,26.367,78.613,174.805,0.000
1659298149.556,127.930,28.809,75.195,169.922,0.000
1659298149.560,119.629,30.273,77.148,156.250,0.000
1659298149.564,120.117,22.949,83.496,161.621,0.000
1659298149.568,130.371,28.809,89.844,177.246,0.000
1659298149.571,128.418,30.762,83.008,165.527,0.000
1659298149.575,116.211,30.762,80.566,144.043,0.000
1659298149.579,117.676,36.621,87.891,151.855,0.000
1659298149.583,128.418,41.504,84.961,163.574,0.000
1659298149.587,127.441,38.574,75.684,162.109,0.000
1659298149.591,111.328,32.227,80.078,137.695,0.000
1659298149.595,110.352,32.227,88.379,135.742,0.000
1659298149.599,123.535,36.621,93.750,157.715,0.000
1659298149.603,146.973,45.898,102.539,178.711,0.000
1659298149.607,142.578,45.898,103.027,166.016,0.000
1659298149.611,126.953,52.734,94.238,145.020,0.000
1659298149.614,141.602,60.059,98.145,160.645,0.000
1659298149.618,156.250,55.664,97.656,179.688,0.000
1659298149.622,148.926,54.199,85.449,159.180,0.000
1659298149.626,141.113,48.340,80.078,149.902,0.000
1659298149.630,140.137,34.668,83.496,162.598,0.000
1659298149.634,142.578,37.109,80.078,164.551,0.000
1659298149.638,141.602,50.781,85.938,164.062,0.000
1659298149.642,134.766,55.664,92.773,158.691,0.000
1659298149.646,131.348,59.082,85.449,158.203,0.000
1659298149.650,134.277,56.152,76.660,166.016,0.000
1659298149.654,134.766,47.852,75.684,165.527,0.000
1659298149.657,121.094,45.898,79.102,147.949,0.000
1659298149.661,111.328,50.781,72.266,138.672,0.000
1659298149.665,118.164,36.621,69.336,142.578,0.000
1659298149.669,125.488,27.832,70.312,152.832,0.000
1659298149.673,119.629,40.527,65.430,141.602,0.000
1659298149.677,117.188,43.945,62.012,135.742,0.000
1659298149.681,126.953,45.898,66.895,139.160,0.000
1659298149.685,135.254,42.480,74.707,155.273,0.000
1659298149.689,129.395,34.668,69.824,157.227,0.000
1659298149.693,117.188,29.297,62.500,140.625,0.000
1659298149.697,111.328,26.855,65.918,139.160,0.000
1659298149.700,122.070,33.203,66.895,143.555,0.000
1659298149.704,124.512,35.156,64.453,148.926,0.000
1659298149.708,106.934,21.973,53.711,131.836,0.000
1659298149.712,108.398,24.414,48.340,118.164,0.000
1659298149.716,117.676,35.645,50.293,135.742,0.000
1659298149.720,125.488,37.598,54.688,152.832,0.000
1659298149.724,107.422,36.621,51.270,133.789,0.000
1659298149.728,98.145,30.273,40.039,116.699,0.000
1659298149.732,107.422,31.738,40.527,127.441,0.000
1659298149.736,118.164,34.668,53.711,147.461,0.000
1659298149.739,110.352,33.691,51.270,136.719,0.000
1659298149.743,103.027,38.574,42.480,125.977,0.000
1659298149.747,106.934,36.133,41.504,135.254,0.000
1659298149.751,113.281,29.297,44.434,149.902,0.000
1659298149.755,108.887,29.297,46.875,132.812,0.000
1659298149.759,104.980,22.949,43.457,111.816,0.000
1659298149.763,105.469,17.090,39.062,124.023,0.000
1659298149.767,98.145,13.184,35.156,140.625,0.000
1659298149.771,98.145,9.277,35.645,136.719,0.000
1659298149.775,105.469,11.230,35.156,121.582,0.000
1659298149.779,106.445,14.648,32.715,125.977,0.000
1659298149.782,105.957,21.484,38.574,138.184,0.000
1659298149.786,105.957,20.508,34.668,144.531,0.000
1659298149.790,94.727,10.742,21.973,127.441,0.000
1659298149.794,84.473,2.930,25.391,119.141,0.000
1659298149.798,79.590,1.953,25.879,123.535,0.000
1659298149.802,85.449,7.324,28.320,134.766,0.000
1659298149.806,91.309,10.742,36.621,135.254,0.000
1659298149.810,93.750,14.160,40.039,115.723,0.000
1659298149.814,93.750,19.043,41.504,110.840,0.000
1659298149.818,94.238,18.066,39.551,125.000,0.000
1659298149.821,92.773,17.578,37.109,126.465,0.000
1659298149.825,89.844,19.043,37.109,117.188,0.000
1659298149.829,84.961,11.719,39.062,115.234,0.000
1659298149.833,95.703,7.812,33.691,131.348,0.000
1659298149.837,103.516,9.766,25.391,144.043,0.000
1659298149.841,83.984,0.488,32.227,135.742,0.000
1659298149.845,80.566,-3.906,37.598,126.465,0.000
1659298149.849,98.633,-0.977,36.621,125.488,0.000
1659298149.853,103.516,1.465,42.969,132.812,0.000
1659298149.857,89.355,14.160,39.062,123.047,0.000
1659298149.860,86.914,18.066,27.832,110.840,0.000
1659298149.864,90.820,10.742,27.344,110.352,0.000
1659298149.868,103.027,7.324,33.203,137.207,0.000
1659298149.872,104.492,10.742,31.738,132.812,0.000
1659298149.876,100.098,7.812,30.762,115.234,0.000
1659298149.880,100.586,-5.371,34.180,118.652,0.000
1659298149.884,102.051,-6.348,36.621,138.672,0.000
1659298149.888,98.145,3.906,33.203,131.348,0.000
1659298149.892,83.008,13.184,28.320,108.887,0.000
1659298149.896,82.031,20.020,34.668,121.582,0.000
1659298149.899,92.773,20.508,42.969,137.207,0.000
1659298149.903,100.586,21.973,39.062,137.695,0.000
1659298149.907,99.609,21.484,38.574,124.512,0.000
1659298149.911,94.727,17.090,40.527,117.188,0.000
1659298149.915,99.121,15.137,42.969,127.930,0.000
1659298149.919,112.793,15.137,43.945,145.020,0.000
1659298149.923,104.492,17.578,45.898,130.371,0.000
1659298149.927,92.773,7.812,42.480,118.164,0.000
1659298149.931,101.074,0.000,36.621,129.395,0.000
1659298149.935,113.281,10.254,38.086,135.742,0.000
1659298149.939,104.004,17.090,42.480,123.047,0.000
1659298149.942,91.309,22.461,43.457,117.188,0.000
1659298149.946,93.262,22.949,38.574,119.141,0.000
1659298149.950,110.840,19.043,43.457,135.742,0.000
1659298149.954,109.375,23.438,43.457,141.602,0.000
1659298149.958,91.309,26.855,42.480,120.605,0.000
1659298149.962,97.168,26.367,50.781,118.164,0.000
1659298149.966,115.234,21.973,54.199,126.465,0.000
1659298149.970,117.188,18.555,53.711,134.277,0.000
1659298149.974,102.539,22.461,61.035,121.094,0.000
1659298149.978,98.145,18.555,68.359,114.258,0.000
1659298149.982,106.445,20.508,65.430,129.395,0.000
1659298149.985,120.117,24.414,67.383,146.484,0.000
1659298149.989,119.141,14.160,68.359,138.672,0.000
1659298149.993,113.770,23.438,58.105,118.652,0.000
1659298149.997,119.629,29.297,52.246,124.023,0.000
1659298150.001,127.441,23.438,54.688,142.578,0.000
1659298150.005,124.023,38.086,60.059,142.578,0.000
1659298150.009,125.000,41.992,59.082,130.371,0.000
1659298150.013,124.512,34.668,54.199,131.836,0.000
1659298150.017,119.629,30.762,46.875,141.602,0.000
1659298150.021,106.445,21.973,43.457,127.441,0.000
1659298150.025,91.309,9.277,52.246,105.469,0.000
1659298150.028,94.727,24.902,52.246,101.074,0.000
1659298150.032,98.633,38.086,52.734,121.094,0.000
1659298150.036,101.074,32.227,53.711,137.695,0.000
1659298150.040,91.797,26.367,45.410,108.398,0.000
1659298150.044,84.961,16.602,41.504,103.516,0.000
1659298150.048,94.238,6.348,43.457,123.535,0.000
1659298150.052,100.586,10.742,40.527,128.906,0.000
1659298150.056,87.891,21.973,39.551,110.352,0.000
1659298150.060,91.309,20.508,44.922,111.816,0.000
1659298150.064,98.145,15.625,49.805,126.953,0.000
1659298150.068,102.051,17.578,45.410,133.789,0.000
1659298150.071,107.910,12.207,44.922,131.836,0.000
1659298150.075,93.750,3.906,47.363,117.188,0.000
1659298150.079,90.820,5.859,39.551,118.652,0.000
1659298150.083,104.492,13.184,37.109,133.789,0.000
1659298150.087,106.445,14.648,39.062,134.277,0.000
1659298150.091,89.844,5.371,26.855,124.512,0.000
1659298150.095,88.867,0.488,20.020,118.652,0.000
1659298150.099,91.797,-7.324,12.207,109.375,0.000
1659298150.103,84.961,-3.418,4.395,104.980,0.000
1659298150.107,68.359,0.000,7.324,92.773,0.000
1659298150.110,55.664,-3.418,6.836,75.195,0.000
1659298150.114,58.105,-8.789,7.324,67.871,0.000
1659298150.118,66.406,-17.578,10.254,85.449,0.000
1659298150.122,58.105,-14.648,6.836,80.566,0.000
1659298150.126,47.363,-8.789,3.418,65.430,0.000
1659298150.130,48.340,-8.301,1.465,74.219,0.000
1659298150.134,62.500,-5.859,6.348,99.121,0.000
1659298150.138,67.871,-4.395,12.695,99.609,0.000
1659298150.142,60.059,-1.953,12.695,81.543,0.000
1659298150.146,61.523,-0.977,10.742,89.355,0.000
1659298150.150,69.336,-5.859,8.789,111.816,0.000
1659298150.153,73.242,0.488,11.230,112.305,0.000
1659298150.157,64.941,-0.977,17.090,90.820,0.000
1659298150.161,59.082,-10.742,11.719,76.660,0.000
1659298150.165,59.570,-10.254,6.348,82.520,0.000
1659298150.169,60.059,-1.465,6.836,90.820,0.000
1659298150.173,57.617,3.418,3.906,85.449,0.000
1659298150.177,71.289,0.488,7.324,87.402,0.000
1659298150.181,72.754,-7.812,15.137,95.703,0.000
1659298150.185,78.613,-11.230,14.648,112.305,0.000
1659298150.189,83.496,-4.883,15.137,114.746,0.000
1659298150.193,79.102,-6.836,17.578,92.773,0.000
1659298150.196,82.031,-10.254,20.996,92.773,0.000
1659298150.200,89.844,-11.719,27.832,118.652,0.000
1659298150.204,86.426,-12.207,33.203,125.000,0.000
1659298150.208,76.660,-5.859,34.180,109.375,0.000
1659298150.212,77.637,1.465,29.785,108.398,0.000
1659298150.216,90.332,10.742,32.715,116.211,0.000
1659298150.220,82.520,3.418,28.809,112.793,0.000
1659298150.224,64.453,-7.812,22.949,99.121,0.000
1659298150.228,68.848,-3.906,33.203,106.934,0.000
1659298150.231,75.684,0.488,37.598,120.117,0.000
1659298150.235,87.891,-5.859,34.668,120.117,0.000
1659298150.239,85.449,-2.930,35.645,114.746,0.000
1659298150.243,79.102,0.977,37.598,116.699,0.000
1659298150.247,92.285,1.953,36.133,115.234,0.000
1659298150.251,103.027,5.371,37.109,122.070,0.000
1659298150.255,92.773,3.418,38.086,115.723,0.000
1659298150.259,87.402,4.883,40.527,104.492,0.000
1659298150.263,90.332,-0.488,40.039,106.445,0.000
1659298150.267,93.750,0.488,37.598,114.746,0.000
1659298150.271,95.703,14.160,36.133,116.211,0.000
1659298150.274,85.449,12.207,28.809,101.074,0.000
1659298150.278,78.613,2.930,14.648,90.820,0.000
1659298150.282,82.520,0.977,11.230,92.285,0.000
1659298150.286,87.891,-2.441,17.090,101.074,0.000
1659298150.290,73.730,-11.719,18.555,93.262,0.000
1659298150.294,58.105,-20.020,20.996,82.031,0.000
1659298150.298,63.965,-13.672,16.113,89.355,0.000
1659298150.302,76.172,1.953,12.207,106.934,0.000
1659298150.306,65.918,-0.977,13.672,97.656,0.000
1659298150.310,66.895,-8.789,15.625,90.820,0.000
1659298150.314,70.312,-7.324,17.090,98.145,0.000
1659298150.318,70.312,-13.672,20.020,102.051,0.000
1659298150.321,69.824,-11.230,29.297,101.074,0.000
1659298150.325,66.406,-0.977,34.668,89.844,0.000
1659298150.329,69.824,-10.254,22.949,86.914,0.000
1659298150.333,80.566,-16.113,18.066,103.027,0.000
1659298150.337,80.566,-7.812,29.785,114.258,0.000
1659298150.341,68.359,-13.184,31.250,96.191,0.000
1659298150.345,72.266,-13.184,35.156,96.191,0.000
1659298150.349,79.590,-7.812,37.109,106.934,0.000
1659298150.353,79.102,-5.859,32.227,115.234,0.000
1659298150.357,62.988,-11.719,27.344,99.121,0.000
1659298150.360,57.129,-12.695,26.855,90.820,0.000
1659298150.364,70.801,-7.812,30.762,103.516,0.000
1659298150.368,87.402,-3.906,27.344,121.582,0.000
1659298150.372,83.008,-1.953,28.809,123.535,0.000
1659298150.376,63.965,-5.859,28.809,108.887,0.000
1659298150.380,65.430,-2.930,33.203,121.094,0.000
1659298150.384,75.684,-0.488,23.438,125.977,0.000
1659298150.388,84.473,-7.812,7.324,104.492,0.000
1659298150.392,85.938,-11.719,10.254,89.844,0.000
1659298150.396,76.660,-12.207,13.184,92.285,0.000
1659298150.400,75.684,-8.789,18.066,117.676,0.000
1659298150.403,78.613,-0.488,18.555,116.211,0.000
1659298150.407,79.590,0.488,15.625,94.727,0.000
1659298150.411,72.754,-4.395,18.066,103.027,0.000
1659298150.415,74.219,-10.254,16.602,106.934,0.000
1659298150.419,92.285,0.488,23.926,125.488,0.000
1659298150.423,90.332,13.184,25.879,127.441,0.000
1659298150.427,83.496,15.137,23.438,115.234,0.000
1659298150.431,91.797,19.531,28.809,119.629,0.000
1659298150.435,107.422,14.160,31.250,141.602,0.000
1659298150.439,106.445,5.371,28.809,143.066,0.000
1659298150.443,98.145,8.301,20.020,124.512,0.000
1659298150.446,101.562,6.348,23.926,130.859,0.000
1659298150.450,109.863,-0.488,36.621,142.578,0.000
1659298150.454,113.281,-3.418,36.133,136.719,0.000
1659298150.458,103.516,-3.906,29.297,117.676,0.000
1659298150.462,105.957,-3.906,25.879,112.305,0.000
1659298150.466,113.281,-2.930,35.645,124.512,0.000
1659298150.470,115.234,-4.395,40.039,134.277,0.000
1659298150.474,104.980,0.977,39.062,125.488,0.000
1659298150.478,103.516,6.348,35.645,113.281,0.000
1659298150.482,110.840,0.488,30.273,118.652,0.000
1659298150.485,104.492,-0.488,30.273,144.531,0.000
1659298150.489,97.656,3.906,28.320,130.859,0.000
1659298150.493,102.539,5.859,32.715,120.117,0.000
1659298150.497,106.934,14.160,36.621,130.859,0.000
1659298150.501,106.934,12.207,27.832,134.277,0.000
1659298150.505,98.633,2.930,27.344,116.699,0.000
1659298150.509,88.867,6.836,36.133,96.680,0.000
1659298150.513,89.355,14.648,30.762,102.539,0.000
1659298150.517,94.238,20.508,20.996,115.234,0.000
1659298150.521,87.891,6.836,26.855,116.211,0.000
1659298150.525,68.359,0.488,30.273,108.887,0.000
1659298150.528,63.965,3.906,28.320,93.262,0.000
1659298150.532,69.336,-1.465,28.320,95.215,0.000
1659298150.536,73.242,0.000,22.461,107.422,0.000
1659298150.540,67.383,-2.930,18.066,100.586,0.000
1659298150.544,66.406,-7.324,20.508,96.680,0.000
1659298150.548,69.336,-12.695,15.625,94.238,0.000
1659298150.552,77.148,-16.113,14.160,104.980,0.000
1659298150.556,77.148,-6.348,22.949,104.980,0.000
1659298150.560,72.266,7.324,26.367,93.262,0.000
1659298150.564,73.242,9.766,27.344,103.516,0.000
1659298150.567,77.148,-0.488,26.367,123.535,0.000
1659298150.571,73.730,-0.977,20.020,118.652,0.000
1659298150.575,71.777,-5.859,20.508,99.609,0.000
1659298150.579,68.359,-24.902,18.066,108.887,0.000
1659298150.583,74.219,-8.301,17.578,123.047,0.000
1659298150.587,85.449,7.324,25.391,134.766,0.000
1659298150.591,83.496,0.000,25.879,138.184,0.000
1659298150.595,84.473,-4.883,21.973,128.418,0.000
1659298150.599,97.168,-4.883,27.344,136.230,0.000
1659298150.603,109.375,-8.789,30.273,149.414,0.000
1659298150.606,90.332,-10.742,24.414,137.207,0.000
1659298150.610,81.543,-1.465,19.531,129.395,0.000
1659298150.614,97.168,5.371,27.344,140.137,0.000
1659298150.618,105.469,5.371,37.109,164.062,0.000
1659298150.622,101.562,6.836,40.527,170.898,0.000
1659298150.626,110.352,14.160,47.363,157.227,0.000
1659298150.630,117.188,17.090,48.828,157.715,0.000
1659298150.634,125.488,21.973,47.363,181.152,0.000
1659298150.638,126.953,25.879,50.293,177.246,0.000
1659298150.642,121.582,21.973,53.711,151.855,0.000
1659298150.645,125.488,17.578,57.129,151.855,0.000
1659298150.649,125.000,6.836,56.152,170.898,0.000
1659298150.653,123.535,17.578,53.223,176.270,0.000
1659298150.657,111.328,29.785,52.734,153.809,0.000
1659298150.661,115.723,36.133,58.594,156.738,0.000
1659298150.665,126.953,45.410,59.082,167.969,0.000
1659298150.669,129.883,42.969,53.223,159.668,0.000
1659298150.673,123.535,34.668,50.293,145.508,0.000
1659298150.677,122.070,34.180,52.734,139.160,0.000
1659298150.681,125.488,24.414,54.199,144.531,0.000
1659298150.685,129.883,11.230,53.223,155.762,0.000
1659298150.688,125.977,21.973,51.270,145.020,0.000
1659298150.692,114.258,30.273,52.734,135.254,0.000
1659298150.696,113.770,19.531,54.199,137.207,0.000
1659298150.700,125.000,23.438,58.594,143.555,0.000
1659298150.704,118.652,28.809,58.105,143.555,0.000
1659298150.708,100.586,28.320,51.758,138.672,0.000
1659298150.712,104.980,22.949,55.664,133.789,0.000
1659298150.716,116.699,8.789,52.246,135.742,0.000
1659298150.720,113.281,11.719,52.246,140.625,0.000
1659298150.724,108.887,27.832,57.617,136.230,0.000
1659298150.728,112.793,33.691,54.199,138.672,0.000
1659298150.731,115.234,29.297,53.223,142.578,0.000
1659298150.735,118.652,27.344,55.176,148.926,0.000
1659298150.739,113.281,25.391,52.734,144.043,0.000
1659298150.743,109.863,10.254,41.992,124.512,0.000
1659298150.747,111.328,7.812,37.598,120.605,0.000
1659298150.751,108.887,16.602,36.621,130.859,0.000
1659298150.755,101.074,25.879,35.645,127.930,0.000
1659298150.759,98.145,28.809,32.227,108.398,0.000
1659298150.763,92.285,12.695,31.250,97.656,0.000
1659298150.767,88.867,2.441,31.250,103.516,0.000
1659298150.771,96.191,5.371,34.180,109.375,0.000
1659298150.774,82.520,2.441,32.227,91.309,0.000
1659298150.778,62.012,-18.555,20.508,74.219,0.000
1659298150.782,60.059,-23.438,15.137,86.914,0.000
1659298150.786,67.383,-9.766,10.742,97.656,0.000
1659298150.790,63.477,-4.883,5.859,72.754,0.000
1659298150.794,56.641,-4.395,15.137,61.035,0.000
1659298150.798,64.453,-8.301,22.949,69.824,0.000
1659298150.802,78.613,-12.695,17.090,86.914,0.000
1659298150.806,64.453,-12.695,16.602,89.355,0.000
1659298150.810,55.664,-13.184,22.461,70.801,0.000
1659298150.814,66.895,-14.160,24.414,71.289,0.000
1659298150.818,73.242,-25.879,20.020,86.914,0.000
1659298150.821,70.312,-19.043,14.160,88.379,0.000
1659298150.825,58.105,-9.766,13.672,82.031,0.000
1659298150.829,57.617,-16.602,8.789,82.520,0.000
1659298150.833,65.430,-7.812,9.277,93.750,0.000
1659298150.837,67.871,0.000,9.766,101.074,0.000
1659298150.841,60.059,-6.836,10.742,89.355,0.000
1659298150.845,62.500,-7.812,20.996,93.750,0.000
1659298150.849,70.312,-13.184,16.602,98.633,0.000
1659298150.853,82.520,-15.137,7.324,105.469,0.000
1659298150.857,82.520,-8.301,18.555,110.352,0.000
1659298150.861,79.102,-7.812,28.320,102.051,0.000
1659298150.864,86.914,-5.859,26.855,103.027,0.000
1659298150.868,93.750,-2.441,26.367,114.258,0.000
1659298150.872,83.984,-4.883,25.879,112.305,0.000
1659298150.876,74.707,-9.277,26.855,103.027,0.000
1659298150.880,79.102,-11.719,25.879,102.051,0.000
1659298150.884,84.473,-8.301,20.020,123.535,0.000
1659298150.888,83.984,-5.371,22.461,129.883,0.000
1659298150.892,71.289,-8.301,24.414,114.258,0.000
1659298150.896,79.102,-13.184,26.367,111.816,0.000
1659298150.900,95.215,-14.160,31.738,118.164,0.000
1659298150.903,91.309,-3.906,31.250,126.953,0.000
1659298150.907,77.637,-5.371,25.391,114.746,0.000
1659298150.911,80.566,-3.418,21.973,93.262,0.000
1659298150.915,79.590,3.418,21.973,94.238,0.000
1659298150.919,79.102,-5.371,20.996,116.211,0.000
1659298150.923,75.684,-3.418,26.367,111.328,0.000
1659298150.927,80.566,-0.488,32.227,104.492,0.000
1659298150.931,88.867,-6.836,31.738,123.047,0.000
1659298150.935,89.355,-17.578,26.855,120.605,0.000
1659298150.939,79.102,-25.391,27.832,96.680,0.000
1659298150.943,67.871,-16.113,28.809,87.891,0.000
1659298150.946,77.148,-6.836,25.391,96.191,0.000
1659298150.950,90.332,-5.859,23.438,114.258,0.000
1659298150.954,84.961,-3.418,30.273,120.605,0.000
1659298150.958,78.125,-4.883,27.344,105.957,0.000
1659298150.962,78.613,-6.348,28.320,117.188,0.000
1659298150.966,86.426,-6.836,31.250,133.301,0.000
1659298150.970,95.703,-7.812,28.809,133.789,0.000
1659298150.974,81.543,-6.836,27.344,125.000,0.000
1659298150.978,82.520,-2.441,24.902,117.676,0.000
1659298150.981,89.355,-6.836,26.855,111.816,0.000
1659298150.985,83.984,-7.324,31.250,117.676,0.000
1659298150.989,76.660,-16.113,23.926,105.469,0.000
1659298150.993,72.266,-12.695,17.578,96.191,0.000
1659298150.997,77.637,2.441,26.855,110.840,0.000
1659298151.001,84.961,-0.488,25.391,128.418,0.000
1659298151.005,81.543,-8.789,20.508,126.465,0.000
1659298151.009,69.336,-11.230,22.949,116.211,0.000
1659298151.013,67.871,-15.625,22.461,104.980,0.000
1659298151.017,79.590,-15.625,20.996,104.004,0.000
1659298151.021,85.449,-17.090,23.926,112.793,0.000
1659298151.024,77.637,-17.090,29.297,98.145,0.000
1659298151.028,77.637,-13.184,31.250,88.867,0.000
1659298151.032,78.613,-14.648,24.414,94.727,0.000
1659298151.036,69.824,-20.508,16.113,98.633,0.000
1659298151.040,55.664,-25.391,15.137,79.590,0.000
1659298151.044,54.688,-25.879,12.695,76.660,0.000
1659298151.048,56.152,-27.344,1.953,79.102,0.000
1659298151.052,59.570,-31.250,2.930,88.867,0.000
1659298151.056,55.664,-28.320,7.324,95.703,0.000
1659298151.060,57.617,-28.320,6.348,91.309,0.000
1659298151.064,69.824,-28.809,3.906,89.355,0.000
1659298151.067,59.570,-26.367,-1.465,85.449,0.000
1659298151.071,38.574,-25.879,-4.395,67.383,0.000
1659298151.075,29.785,-23.438,-3.906,50.293,0.000
1659298151.079,32.227,-26.855,-2.441,51.270,0.000
1659298151.083,39.062,-38.574,-1.953,62.988,0.000
1659298151.087,41.504,-33.203,-4.395,68.359,0.000
1659298151.091,21.973,-23.926,-5.371,46.875,0.000
1659298151.095,21.973,-20.020,4.883,33.691,0.000
1659298151.099,30.762,-17.578,7.812,41.992,0.000
1659298151.103,26.855,-24.902,1.465,48.340,0.000
1659298151.107,13.672,-28.320,1.465,31.250,0.000
1659298151.110,8.301,-28.320,0.488,29.785,0.000
1659298151.114,17.578,-29.785,7.324,52.734,0.000
1659298151.118,28.809,-28.320,9.766,67.383,0.000
1659298151.122,32.715,-22.949,6.348,52.246,0.000
1659298151.126,34.180,-19.531,2.930,56.152,0.000
1659298151.130,40.527,-21.484,0.977,74.707,0.000
1659298151.134,52.246,-29.297,-1.465,76.172,0.000
1659298151.138,51.758,-23.926,-2.441,75.684,0.000
1659298151.142,43.457,-14.160,1.465,69.824,0.000
1659298151.146,51.758,-11.230,4.883,82.031,0.000
1659298151.150,67.871,-11.230,8.301,103.516,0.000
1659298151.153,75.684,-8.301,11.230,107.910,0.000
1659298151.157,67.383,-11.719,17.578,94.727,0.000
1659298151.161,56.152,-10.742,12.207,95.215,0.000
1659298151.165,54.688,-8.301,3.418,91.309,0.000
1659298151.169,67.871,-8.301,6.836,106.934,0.000
1659298151.173,64.453,-13.184,7.324,105.957,0.000
1659298151.177,55.664,-17.090,-0.977,86.914,0.000
1659298151.181,62.988,-9.277,-4.883,87.402,0.000
1659298151.185,73.242,-10.254,0.977,104.492,0.000
1659298151.189,68.359,-15.137,6.348,108.887,0.000
1659298151.193,74.219,-6.836,8.301,93.262,0.000
1659298151.196,77.637,-9.277,5.371,98.145,0.000
1659298151.200,72.754,-17.578,1.465,114.258,0.000
1659298151.204,65.918,-14.648,6.348,109.863,0.000
1659298151.208,49.805,-10.254,7.324,96.191,0.000
1659298151.212,48.340,-11.230,6.348,101.074,0.000
1659298151.216,57.129,-15.137,7.324,102.539,0.000
1659298151.220,65.430,-10.742,13.184,110.840,0.000
1659298151.224,58.105,-14.160,11.719,93.262,0.000
1659298151.228,50.293,-18.555,3.418,76.172,0.000
1659298151.232,57.617,-19.043,9.277,94.238,0.000
1659298151.235,73.730,-23.438,16.602,111.328,0.000
1659298151.239,73.242,-21.973,13.184,103.516,0.000
1659298151.243,58.105,-18.066,13.184,88.379,0.000
1659298151.247,57.617,-16.113,10.742,82.520,0.000
1659298151.251,63.477,-11.719,3.418,103.516,0.000
1659298151.255,51.758,-9.766,-6.836,103.027,0.000
1659298151.259,51.270,-16.113,-10.742,87.891,0.000
1659298151.263,62.012,-18.555,0.000,84.961,0.000
1659298151.267,59.570,-16.602,2.441,83.496,0.000
1659298151.271,61.523,-11.230,4.395,86.914,0.000
1659298151.275,60.059,-12.207,5.859,78.125,0.000
1659298151.278,58.105,-14.648,3.418,74.219,0.000
1659298151.282,62.012,-7.812,0.488,84.473,0.000
1659298151.286,69.336,-5.371,4.883,91.309,0.000
1659298151.290,64.941,-5.859,10.742,89.844,0.000
1659298151.294,62.012,-12.695,11.230,89.844,0.000
1659298151.298,64.941,-22.949,4.883,85.449,0.000
1659298151.302,76.172,-27.832,4.395,98.145,0.000
1659298151.306,71.777,-24.902,0.977,95.215,0.000
1659298151.310,73.242,-13.184,1.465,85.449,0.000
1659298151.314,85.449,-10.742,5.371,85.449,0.000
1659298151.317,68.359,-21.484,4.395,81.055,0.000
1659298151.321,55.176,-27.832,8.301,85.938,0.000
1659298151.325,58.105,-19.531,10.742,80.078,0.000
1659298151.329,61.035,-11.719,8.789,83.984,0.000
1659298151.333,62.988,-15.137,3.418,98.633,0.000
1659298151.337,71.289,-14.648,11.230,111.328,0.000
1659298151.341,66.895,-18.555,19.043,107.910,0.000
1659298151.345,53.223,-23.926,9.277,92.285,0.000
1659298151.349,62.988,-18.555,9.766,96.680,0.000
1659298151.353,74.707,-17.578,11.230,96.680,0.000
1659298151.356,64.941,-17.090,13.184,91.309,0.000
1659298151.360,64.941,-13.184,20.996,93.750,0.000
1659298151.364,72.754,-26.367,17.090,93.262,0.000
1659298151.368,77.148,-28.809,13.184,103.516,0.000
1659298151.372,66.895,-16.113,13.184,100.098,0.000
1659298151.376,53.223,-7.812,10.742,89.844,0.000
1659298151.380,55.664,-8.301,14.160,80.566,0.000
1659298151.384,68.359,-16.113,25.391,98.145,0.000
1659298151.388,62.012,-13.184,23.438,99.609,0.000
1659298151.392,50.781,-16.113,12.695,74.219,0.000
1659298151.396,60.059,-19.531,4.883,76.660,0.000
1659298151.399,71.289,-14.648,8.789,99.609,0.000
1659298151.403,79.102,-14.160,17.090,104.980,0.000
1659298151.407,78.125,-17.090,20.020,92.285,0.000
1659298151.411,82.520,-23.926,28.809,95.215,0.000
1659298151.415,83.008,-20.508,28.320,102.051,0.000
1659298151.419,80.078,-16.113,15.137,109.863,0.000
1659298151.423,74.219,-14.160,13.672,98.633,0.000
1659298151.427,68.359,-9.766,14.648,86.914,0.000
1659298151.431,61.523,-4.883,14.648,98.145,0.000
1659298151.435,68.359,-0.488,19.043,109.863,0.000
1659298151.439,66.406,-13.184,12.695,95.215,0.000
1659298151.442,53.223,-16.602,12.695,92.285,0.000
1659298151.446,53.711,-13.672,21.973,101.562,0.000
1659298151.450,61.035,-22.461,17.578,91.309,0.000
1659298151.454,63.477,-21.484,26.855,93.750,0.000
1659298151.458,55.176,-12.207,25.879,88.867,0.000
1659298151.462,52.246,-14.160,8.789,82.031,0.000
1659298151.466,69.336,-17.578,8.789,89.844,0.000
1659298151.470,78.613,-15.137,13.184,96.680,0.000
1659298151.474,66.406,-7.812,16.113,89.355,0.000
1659298151.478,62.988,-2.441,15.137,86.426,0.000
1659298151.482,62.012,-11.230,10.742,87.891,0.000
1659298151.485,64.941,-15.625,14.160,98.145,0.000
1659298151.489,68.359,-13.184,25.391,105.957,0.000
1659298151.493,63.965,-22.461,25.391,93.750,0.000
1659298151.497,61.035,-23.926,14.648,85.938,0.000
1659298151.501,71.289,-9.766,12.695,105.957,0.000
1659298151.505,69.824,-5.371,20.020,108.398,0.000
1659298151.509,57.617,-18.555,16.113,89.844,0.000
1659298151.513,62.500,-22.949,11.230,81.543,0.000
1659298151.517,63.477,-14.648,14.648,82.520,0.000
1659298151.521,63.965,-16.113,15.137,88.379,0.000
1659298151.524,59.570,-21.484,17.578,83.984,0.000
1659298151.528,62.012,-16.602,18.555,90.332,0.000
1659298151.532,69.824,-16.113,13.184,103.516,0.000
1659298151.536,73.730,-16.602,9.766,120.605,0.000
1659298151.540,67.383,-20.996,11.230,108.398,0.000
1659298151.544,67.383,-20.020,19.531,93.262,0.000
1659298151.548,71.777,-9.277,21.973,100.586,0.000
1659298151.552,75.684,0.488,20.020,109.375,0.000
1659298151.556,75.195,0.488,16.113,101.074,0.000
1659298151.560,70.312,-9.766,12.695,90.332,0.000
1659298151.564,62.500,-20.996,8.301,84.473,0.000
1659298151.568,70.801,-20.996,7.812,92.285,0.000
1659298151.571,72.754,-10.742,12.695,105.469,0.000
1659298151.575,62.988,-17.090,11.719,91.309,0.000
1659298151.579,70.312,-21.484,10.254,100.586,0.000
1659298151.583,76.660,-8.301,11.719,111.816,0.000
1659298151.587,79.590,-15.625,15.625,91.309,0.000
1659298151.591,71.777,-25.391,19.531,81.543,0.000
1659298151.595,71.289,-14.160,24.414,83.008,0.000
1659298151.599,78.613,-2.930,32.227,89.844,0.000
1659298151.603,81.543,-10.254,28.320,102.539,0.000
1659298151.607,69.336,-16.113,21.484,88.379,0.000
1659298151.610,66.406,-16.113,24.902,90.332,0.000
1659298151.614,79.590,-14.648,27.344,111.328,0.000
1659298151.618,89.355,-13.184,27.344,115.234,0.000
1659298151.622,70.312,-16.113,33.203,96.680,0.000
1659298151.626,56.641,-17.090,33.203,81.543,0.000
1659298151.630,71.777,-17.090,33.691,92.285,0.000
1659298151.634,63.477,-20.020,40.527,98.145,0.000
1659298151.638,56.152,-20.020,49.316,100.098,0.000
1659298151.642,59.570,-22.949,49.316,99.609,0.000
1659298151.646,54.199,-29.785,38.574,88.379,0.000
1659298151.650,58.594,-23.438,39.062,97.656,0.000
1659298151.653,69.824,-16.113,44.922,116.699,0.000
1659298151.657,63.965,-21.973,38.574,112.793,0.000
1659298151.661,57.617,-20.996,34.668,104.980,0.000
1659298151.665,59.082,-22.949,35.645,102.051,0.000
1659298151.669,69.824,-25.391,37.109,113.770,0.000
1659298151.673,68.359,-20.508,36.133,109.375,0.000
1659298151.677,65.430,-28.809,34.668,100.586,0.000
1659298151.681,70.801,-25.391,35.645,105.957,0.000
1659298151.685,80.078,-17.578,34.180,113.770,0.000
1659298151.688,74.219,-18.555,34.668,111.816,0.000
1659298151.693,70.312,-5.371,40.527,108.398,0.000
1659298151.696,74.219,0.488,40.527,119.629,0.000
1659298151.700,74.219,-3.906,36.621,133.789,0.000
1659298151.704,76.172,0.488,38.086,142.090,0.000
1659298151.708,69.336,3.418,40.039,131.836,0.000
1659298151.712,69.824,-9.766,38.086,125.000,0.000
1659298151.716,84.473,-12.207,41.992,136.719,0.000
1659298151.720,91.797,-5.371,36.133,138.672,0.000
1659298151.724,90.820,-4.395,31.250,127.930,0.000
1659298151.728,94.727,-6.836,40.527,130.371,0.000
1659298151.732,90.820,-9.766,45.410,131.836,0.000
1659298151.735,93.750,-14.648,41.016,133.789,0.000
1659298151.739,95.703,-15.625,42.969,133.301,0.000
1659298151.743,94.727,-11.230,45.410,134.277,0.000
1659298151.747,88.867,-10.742,35.645,134.277,0.000
1659298151.751,81.543,-5.371,29.785,145.996,0.000
1659298151.755,82.520,-2.441,33.691,146.484,0.000
1659298151.759,87.891,5.371,38.086,138.184,0.000
1659298151.763,87.891,10.742,37.598,129.883,0.000
1659298151.767,87.891,2.441,33.691,132.324,0.000
1659298151.771,89.355,-2.930,30.273,138.672,0.000
1659298151.775,83.984,0.000,31.738,134.277,0.000
1659298151.778,79.102,0.977,37.598,133.301,0.000
1659298151.782,93.262,-4.395,43.457,142.090,0.000
1659298151.786,106.934,3.906,43.945,155.273,0.000
1659298151.790,96.680,20.996,45.898,149.902,0.000
1659298151.794,83.496,16.113,46.387,130.859,0.000
1659298151.798,90.820,15.137,49.316,137.695,0.000
1659298151.802,107.422,19.531,60.059,158.203,0.000
1659298151.806,111.816,20.020,63.477,157.227,0.000
1659298151.810,105.469,25.391,62.012,149.414,0.000
1659298151.814,111.816,30.273,66.895,151.855,0.000
1659298151.818,123.535,28.320,69.824,164.062,0.000
1659298151.822,122.559,25.879,72.754,172.852,0.000
1659298151.825,117.188,23.438,70.312,157.715,0.000
1659298151.829,123.047,26.367,74.707,159.668,0.000
1659298151.833,128.906,31.250,72.266,170.410,0.000
1659298151.837,129.395,24.414,63.965,171.875,0.000
1659298151.841,128.906,22.949,69.824,171.387,0.000
1659298151.845,131.348,31.250,71.777,161.621,0.000
1659298151.849,128.418,30.762,67.871,160.156,0.000
1659298151.853,126.465,37.109,73.730,171.875,0.000
1659298151.857,118.652,47.852,73.730,159.668,0.000
1659298151.861,114.258,43.457,69.336,146.484,0.000
1659298151.865,116.699,38.574,72.266,152.344,0.000
1659298151.869,121.582,41.504,73.242,157.715,0.000
1659298151.872,120.117,39.062,71.777,144.531,0.000
1659298151.876,112.793,30.762,65.430,135.742,0.000
1659298151.880,106.445,23.438,63.477,136.230,0.000
1659298151.884,116.699,16.113,62.500,150.391,0.000
1659298151.888,129.395,21.973,59.570,160.645,0.000
1659298151.892,117.188,30.273,65.918,140.137,0.000
1659298151.896,107.910,29.297,68.848,139.648,0.000
1659298151.900,107.422,25.879,65.430,154.297,0.000
1659298151.904,108.887,26.367,71.777,149.902,0.000
1659298151.908,109.375,27.344,71.289,130.859,0.000
1659298151.911,112.305,33.691,65.430,130.859,0.000
1659298151.915,112.793,31.738,63.965,133.301,0.000
1659298151.919,114.746,24.902,62.500,142.090,0.000
1659298151.923,105.469,22.461,53.711,130.859,0.000
1659298151.927,100.586,20.508,50.781,118.652,0.000
1659298151.931,103.027,18.066,49.805,119.141,0.000
1659298151.935,106.934,16.602,44.434,128.906,0.000
1659298151.939,107.422,22.461,49.805,135.254,0.000
1659298151.943,96.680,18.555,49.316,126.465,0.000
1659298151.947,93.750,9.766,46.875,123.047,0.000
1659298151.951,101.562,0.488,49.805,136.230,0.000
1659298151.954,102.539,-3.906,46.387,142.578,0.000
1659298151.958,93.262,8.789,38.086,115.723,0.000
1659298151.962,93.262,14.648,32.227,96.191,0.000
1659298151.966,102.051,15.137,30.762,112.305,0.000
1659298151.970,114.746,15.625,35.645,136.719,0.000
1659298151.974,105.957,7.324,40.039,117.188,0.000
1659298151.978,103.027,8.301,45.898,93.262,0.000
1659298151.982,110.352,13.672,45.410,111.816,0.000
1659298151.986,113.770,8.301,39.551,126.953,0.000
1659298151.990,104.004,8.789,38.086,110.352,0.000
1659298151.993,101.074,14.648,38.574,112.793,0.000
1659298151.997,109.375,11.719,40.527,117.676,0.000
1659298152.001,115.234,11.719,37.109,127.930,0.000
1659298152.005,107.910,13.184,33.203,132.324,0.000
1659298152.009,100.098,11.719,42.480,115.723,0.000
1659298152.013,102.539,16.113,46.387,110.352,0.000
1659298152.017,99.609,20.020,45.898,121.094,0.000
1659298152.021,95.703,11.719,41.504,119.141,0.000
1659298152.025,91.309,9.766,35.156,103.516,0.000
1659298152.029,91.309,9.277,41.992,103.027,0.000
1659298152.033,88.867,-9.277,43.945,110.840,0.000
1659298152.037,92.773,-13.184,33.691,115.723,0.000
1659298152.040,88.867,-0.488,28.320,100.098,0.000
1659298152.044,90.820,-2.441,35.156,102.539,0.000
1659298152.048,95.703,0.977,29.297,108.398,0.000
1659298152.052,89.355,9.766,20.996,102.539,0.000
1659298152.056,94.727,6.348,24.902,102.539,0.000
1659298152.060,102.051,7.324,23.438,107.422,0.000
1659298152.064,103.027,6.348,13.672,115.723,0.000
1659298152.068,109.375,-3.418,1.465,125.000,0.000
1659298152.072,117.188,5.859,0.488,132.324,0.000
1659298152.076,123.047,19.531,20.996,143.555,0.000
1659298152.079,117.676,17.090,25.391,139.160,0.000
1659298152.083,117.188,16.602,22.461,143.066,0.000
1659298152.087,119.629,8.301,26.367,154.785,0.000
1659298152.091,110.840,-6.348,23.926,136.719,0.000
1659298152.095,116.211,-0.488,22.949,125.488,0.000
1659298152.099,132.324,13.672,23.926,141.602,0.000
1659298152.103,131.348,12.207,17.578,157.715,0.000
1659298152.107,111.816,7.812,17.578,149.414,0.000
1659298152.111,116.211,8.789,24.414,135.254,0.000
1659298152.115,121.094,11.719,24.902,136.230,0.000
1659298152.119,124.512,14.648,27.832,154.297,0.000
1659298152.123,120.605,11.230,30.273,156.250,0.000
1659298152.126,107.422,0.488,29.785,141.113,0.000
1659298152.130,110.840,-8.789,29.785,135.742,0.000
1659298152.134,117.188,5.859,26.855,145.508,0.000
1659298152.138,117.188,17.090,24.902,145.020,0.000
1659298152.142,116.211,13.672,27.832,124.023,0.000
1659298152.146,118.652,14.160,30.273,121.094,0.000
1659298152.150,124.023,15.625,30.273,141.113,0.000
1659298152.154,118.652,9.277,23.438,144.043,0.000
1659298152.158,92.773,3.418,15.137,115.234,0.000
1659298152.162,96.191,5.371,20.996,108.887,0.000
1659298152.166,108.887,9.277,31.738,125.977,0.000
1659298152.169,103.027,5.859,25.879,125.488,0.000
1659298152.173,103.027,3.906,23.926,119.141,0.000
1659298152.177,104.980,8.789,28.809,125.000,0.000
1659298152.181,102.051,11.719,28.320,126.465,0.000
1659298152.185,106.934,18.555,25.879,130.859,0.000
1659298152.189,107.910,19.531,30.273,132.324,0.000
1659298152.193,101.562,15.625,32.715,122.070,0.000
1659298152.197,96.680,15.137,17.090,131.348,0.000
1659298152.201,106.445,3.418,19.531,139.160,0.000
1659298152.204,107.910,-3.906,28.809,127.441,0.000
1659298152.209,83.496,0.488,22.461,114.746,0.000
1659298152.212,77.148,1.465,18.066,114.258,0.000
1659298152.216,93.262,0.488,17.090,121.582,0.000
1659298152.220,101.074,0.488,16.113,126.465,0.000
1659298152.224,91.797,5.859,24.414,116.699,0.000
1659298152.228,88.867,13.184,25.879,107.910,0.000
1659298152.232,87.402,13.672,15.625,104.004,0.000
1659298152.236,94.727,9.277,13.184,118.164,0.000
1659298152.240,103.027,3.418,14.160,124.512,0.000
1659298152.244,89.844,-1.465,11.719,103.027,0.000
1659298152.247,82.520,1.465,16.602,93.750,0.000
1659298152.251,95.215,4.883,20.996,108.887,0.000
1659298152.255,87.891,-0.977,16.602,104.492,0.000
1659298152.259,78.613,0.488,13.184,98.633,0.000
1659298152.263,88.867,5.371,10.742,107.422,0.000
1659298152.267,101.074,8.789,18.066,110.840,0.000
1659298152.271,93.750,13.672,24.414,116.211,0.000
1659298152.275,74.707,14.160,17.578,104.492,0.000
1659298152.279,75.684,5.371,6.836,96.680,0.000
1659298152.283,86.426,2.930,7.812,109.375,0.000
1659298152.287,90.820,3.906,5.371,128.418,0.000
1659298152.290,76.660,-8.301,0.977,108.398,0.000
1659298152.294,67.383,-8.789,6.836,90.332,0.000
1659298152.298,74.707,2.441,6.348,94.727,0.000
1659298152.302,80.566,-0.977,1.465,104.492,0.000
1659298152.306,72.266,-0.488,0.488,93.262,0.000
1659298152.310,74.707,2.441,5.371,88.379,0.000
1659298152.314,82.031,1.465,2.441,103.027,0.000
1659298152.318,83.496,2.930,-3.906,120.117,0.000
1659298152.322,78.125,2.441,4.395,125.000,0.000
1659298152.326,67.383,0.488,5.371,106.445,0.000
1659298152.330,69.336,-8.789,-9.277,91.797,0.000
1659298152.333,73.730,-17.578,-15.137,92.285,0.000
1659298152.337,73.730,-15.625,-12.207,93.262,0.000
1659298152.341,62.012,-13.184,-14.648,85.938,0.000
1659298152.345,62.988,-11.230,-7.812,83.496,0.000
1659298152.349,70.801,-7.324,0.977,88.867,0.000
1659298152.353,76.172,-4.395,5.859,106.934,0.000
1659298152.357,66.895,-8.301,11.719,101.074,0.000
1659298152.361,58.594,-11.719,11.230,83.496,0.000
1659298152.365,67.383,-8.789,13.672,88.379,0.000
1659298152.369,80.566,-5.371,12.695,109.863,0.000
1659298152.373,79.102,-1.465,3.906,112.793,0.000
1659298152.376,70.801,-3.418,-0.488,89.355,0.000
1659298152.380,68.359,-2.930,5.371,88.867,0.000
1659298152.384,81.543,-1.465,18.555,108.398,0.000
1659298152.388,95.703,-18.066,21.973,118.652,0.000
1659298152.392,87.891,-22.949,15.625,109.375,0.000
1659298152.396,83.984,-5.859,1.465,90.820,0.000
1659298152.400,88.379,4.883,-10.742,95.703,0.000
1659298152.404,86.914,3.906,-11.719,109.375,0.000
1659298152.408,78.613,-1.465,-3.418,101.562,0.000
1659298152.412,76.172,1.953,4.883,105.957,0.000
1659298152.416,71.289,7.812,8.301,109.863,0.000
1659298152.419,78.613,3.418,11.230,114.746,0.000
1659298152.423,83.984,-3.906,7.812,108.887,0.000
1659298152.427,70.801,-10.254,0.488,94.727,0.000
1659298152.431,71.289,-13.184,4.395,91.309,0.000
1659298152.435,88.867,-15.137,8.301,116.211,0.000
1659298152.439,81.543,-13.672,0.000,113.770,0.000
1659298152.443,72.266,-7.812,0.000,87.402,0.000
1659298152.447,77.637,-7.812,6.348,87.891,0.000
1659298152.451,82.031,-8.301,12.207,102.051,0.000
1659298152.455,84.473,-11.719,13.184,100.586,0.000
1659298152.458,73.242,-13.672,10.254,86.426,0.000
1659298152.462,66.406,-12.207,13.672,88.379,0.000
1659298152.466,73.242,-3.418,15.625,102.051,0.000
1659298152.470,82.031,-2.441,15.625,107.910,0.000
1659298152.474,76.660,-10.742,13.184,93.262,0.000
1659298152.478,78.613,-12.695,10.742,83.496,0.000
1659298152.482,84.961,-12.695,9.766,88.867,0.000
1659298152.486,89.844,-18.066,4.395,98.145,0.000
1659298152.490,75.195,-20.508,3.418,94.727,0.000
1659298152.494,68.359,-16.602,4.395,85.449,0.000
1659298152.498,76.172,-12.695,7.812,94.238,0.000
1659298152.501,79.102,-10.254,4.883,110.352,0.000
1659298152.505,79.102,-5.371,2.930,106.934,0.000
1659298152.509,71.777,7.812,12.695,99.609,0.000
1659298152.513,63.965,6.348,15.625,91.309,0.000
1659298152.517,71.289,-3.418,8.789,98.633,0.000
1659298152.521,74.219,-0.977,12.695,112.793,0.000
1659298152.525,70.312,-1.465,23.438,104.980,0.000
1659298152.529,74.219,-7.324,20.508,91.797,0.000
1659298152.533,82.031,-5.371,16.602,95.703,0.000
1659298152.537,83.008,0.977,16.602,111.328,0.000
1659298152.540,75.684,3.418,24.414,110.352,0.000
1659298152.544,76.172,1.953,29.297,99.609,0.000
1659298152.548,83.496,7.324,23.926,94.727,0.000
1659298152.552,94.238,8.789,29.297,113.281,0.000
1659298152.556,87.891,-2.930,31.250,117.676,0.000
1659298152.560,77.148,-6.836,24.902,96.680,0.000
1659298152.564,85.449,2.930,26.367,95.703,0.000
1659298152.568,95.703,4.395,21.484,117.676,0.000
1659298152.572,92.285,-6.348,10.742,118.652,0.000
1659298152.576,74.707,-8.301,11.719,98.633,0.000
1659298152.579,67.383,-3.906,12.695,87.402,0.000
1659298152.583,72.266,-3.906,6.348,84.961,0.000
1659298152.587,66.895,-10.742,3.418,95.703,0.000
1659298152.591,62.988,-23.438,8.301,91.797,0.000
1659298152.595,74.219,-27.344,14.648,90.820,0.000
1659298152.599,81.055,-6.836,18.555,104.004,0.000
1659298152.603,82.520,6.348,14.160,113.770,0.000
1659298152.607,77.637,0.000,6.348,98.633,0.000
1659298152.611,72.266,-4.395,7.324,91.309,0.000
1659298152.615,74.707,-4.395,21.484,110.840,0.000
1659298152.619,81.543,-0.977,23.438,121.582,0.000
1659298152.622,75.195,-2.930,15.625,107.910,0.000
1659298152.626,66.406,-1.465,19.043,99.609,0.000
1659298152.630,73.242,0.000,22.949,106.934,0.000
1659298152.634,83.984,-1.953,17.578,112.793,0.000
1659298152.638,68.848,-4.395,9.277,101.562,0.000
1659298152.642,56.641,-12.695,7.324,90.332,0.000
1659298152.646,63.965,-18.066,6.836,99.121,0.000
1659298152.650,65.430,-21.973,1.953,110.352,0.000
1659298152.654,68.359,-20.020,8.789,119.141,0.000
1659298152.658,74.707,-6.348,18.066,106.445,0.000
1659298152.662,79.102,-6.348,20.020,100.098,0.000
1659298152.666,74.707,-20.996,11.230,101.074,0.000
1659298152.669,81.055,-26.855,5.859,109.375,0.000
1659298152.673,79.102,-20.996,5.371,98.145,0.000
1659298152.677,71.289,-14.160,7.324,83.008,0.000
1659298152.681,70.801,-9.766,7.324,83.496,0.000
1659298152.685,75.195,-15.625,6.836,91.797,0.000
1659298152.689,69.336,-22.461,3.906,96.191,0.000
1659298152.693,59.082,-26.855,0.000,90.820,0.000
1659298152.697,68.848,-39.551,4.883,95.215,0.000
1659298152.701,84.961,-44.922,4.395,105.957,0.000
1659298152.705,85.938,-28.809,2.441,108.887,0.000
1659298152.709,71.777,-22.461,6.836,93.750,0.000
1659298152.712,69.824,-25.391,7.812,95.703,0.000
1659298152.716,77.148,-26.367,11.230,111.328,0.000
1659298152.720,73.730,-31.738,8.789,109.375,0.000
1659298152.724,64.453,-35.156,2.930,88.867,0.000
1659298152.728,72.266,-35.645,10.742,83.496,0.000
1659298152.732,78.613,-32.227,22.949,95.703,0.000
1659298152.736,81.543,-32.227,22.949,116.211,0.000
1659298152.740,67.383,-31.738,17.090,104.980,0.000
1659298152.744,62.988,-28.320,20.996,89.355,0.000
1659298152.748,71.777,-25.391,27.344,96.191,0.000
1659298152.751,74.707,-20.508,26.367,101.074,0.000
1659298152.755,61.035,-25.879,21.484,89.355,0.000
1659298152.759,45.898,-32.715,14.648,66.895,0.000
1659298152.763,52.246,-22.949,15.137,73.730,0.000
1659298152.767,62.012,-17.090,22.461,93.262,0.000
1659298152.771,59.082,-29.297,13.184,87.891,0.000
1659298152.775,56.641,-35.156,5.859,74.219,0.000
1659298152.779,64.453,-26.855,19.531,77.637,0.000
1659298152.783,68.359,-27.344,26.367,80.566,0.000
1659298152.787,78.125,-29.297,26.855,89.844,0.000
1659298152.791,68.848,-35.156,25.391,93.750,0.000
1659298152.794,60.059,-35.645,16.602,92.285,0.000
1659298152.798,71.777,-27.344,12.207,93.262,0.000
1659298152.802,83.496,-30.273,18.066,105.469,0.000
1659298152.806,83.496,-23.926,22.461,109.863,0.000
1659298152.810,85.449,-17.578,20.020,100.586,0.000
1659298152.814,90.332,-20.020,18.066,96.680,0.000
1659298152.818,95.215,-15.625,20.508,107.910,0.000
1659298152.822,92.285,-13.184,26.367,121.582,0.000
1659298152.826,91.797,-8.301,23.926,116.699,0.000
1659298152.830,96.680,-3.418,11.719,108.398,0.000
1659298152.833,97.168,-3.418,9.766,114.746,0.000
1659298152.837,102.539,-5.371,24.902,135.742,0.000
1659298152.841,102.051,-12.695,37.109,123.047,0.000
1659298152.845,95.215,-18.066,30.273,96.191,0.000
1659298152.849,99.609,-11.230,31.738,116.211,0.000
1659298152.853,116.211,-3.906,30.762,140.137,0.000
1659298152.857,110.840,-2.930,22.949,130.371,0.000
1659298152.861,102.539,-3.418,27.832,122.559,0.000
1659298152.865,111.816,5.371,34.180,127.930,0.000
1659298152.869,115.723,5.371,30.762,140.625,0.000
1659298152.873,107.422,-3.418,25.391,134.277,0.000
1659298152.876,102.539,-3.418,27.344,125.977,0.000
1659298152.880,105.469,-0.977,27.344,132.324,0.000
1659298152.884,112.793,-4.395,20.996,144.043,0.000
1659298152.888,95.215,-12.207,12.207,148.438,0.000
1659298152.892,86.914,-16.113,16.113,134.766,0.000
1659298152.896,95.703,-15.137,22.949,125.977,0.000
1659298152.900,94.238,-10.742,27.832,135.254,0.000
1659298152.904,96.680,-11.230,32.715,144.531,0.000
1659298152.908,93.750,-9.277,34.668,134.766,0.000
1659298152.912,96.680,6.348,41.016,138.184,0.000
1659298152.916,102.539,14.160,44.434,153.320,0.000
1659298152.919,108.887,12.207,36.133,158.691,0.000
1659298152.923,107.422,8.301,30.762,150.879,0.000
1659298152.927,97.656,1.953,32.227,149.414,0.000
1659298152.931,100.586,7.812,33.203,148.926,0.000
1659298152.935,108.398,11.230,39.062,151.855,0.000
1659298152.939,111.816,8.789,49.316,152.832,0.000
1659298152.943,105.469,1.465,46.875,139.160,0.000
1659298152.947,96.680,-6.348,37.109,145.996,0.000
1659298152.951,109.375,7.324,37.598,163.574,0.000
1659298152.954,109.863,23.438,44.434,171.387,0.000
1659298152.958,99.121,21.484,41.992,145.020,0.000
1659298152.962,101.074,8.789,38.574,126.465,0.000
1659298152.966,102.051,13.184,42.969,141.113,0.000
1659298152.970,109.375,23.926,48.340,156.250,0.000
1659298152.974,113.770,15.625,47.852,146.973,0.000
1659298152.978,114.258,17.090,48.340,146.973,0.000
1659298152.982,121.582,23.926,55.176,163.574,0.000
1659298152.986,131.836,21.484,56.641,173.340,0.000
1659298152.990,124.512,22.461,58.105,166.992,0.000
1659298152.994,114.258,22.461,55.664,156.250,0.000
1659298152.997,112.793,18.066,49.805,142.578,0.000
1659298153.001,120.117,11.230,51.270,154.785,0.000
1659298153.005,124.023,10.254,51.270,156.738,0.000
1659298153.009,115.234,23.438,52.734,135.742,0.000
1659298153.013,102.051,22.949,51.270,124.512,0.000
1659298153.017,100.098,7.324,50.293,131.836,0.000
1659298153.021,97.656,17.090,51.758,144.043,0.000
1659298153.025,84.961,25.879,52.246,127.441,0.000
1659298153.029,85.449,7.812,44.434,116.699,0.000
1659298153.033,93.750,-0.488,40.527,122.559,0.000
1659298153.037,97.656,11.719,43.457,130.371,0.000
1659298153.040,93.750,12.207,34.668,106.445,0.000
1659298153.044,90.332,4.883,29.297,92.773,0.000
1659298153.048,88.379,3.418,34.180,105.957,0.000
1659298153.052,100.098,4.883,37.598,125.000,0.000
1659298153.056,99.121,-6.348,36.133,111.816,0.000
1659298153.060,97.656,-17.578,32.227,98.633,0.000
1659298153.064,91.309,-10.742,26.855,105.957,0.000
1659298153.068,85.938,-2.930,24.414,110.840,0.000
1659298153.072,88.867,0.977,36.133,114.258,0.000
1659298153.076,83.496,9.766,42.480,103.027,0.000
1659298153.080,81.543,12.207,39.062,99.121,0.000
1659298153.083,85.938,-2.930,39.062,110.352,0.000
1659298153.087,85.938,-6.348,41.992,113.281,0.000
1659298153.091,80.566,5.859,41.992,99.609,0.000
1659298153.095,80.078,2.930,40.527,104.980,0.000
1659298153.099,73.730,-13.672,26.855,104.004,0.000
1659298153.103,78.613,-20.020,25.879,108.887,0.000
1659298153.107,83.008,-9.766,35.156,110.840,0.000
1659298153.111,89.844,7.324,40.527,107.910,0.000
1659298153.115,90.820,15.137,41.504,108.398,0.000
1659298153.119,90.332,14.648,45.410,129.883,0.000
1659298153.123,83.984,4.883,44.434,134.277,0.000
1659298153.126,77.637,5.859,39.062,123.047,0.000
1659298153.130,87.402,13.184,44.922,120.605,0.000
1659298153.134,104.492,6.836,47.363,127.930,0.000
1659298153.138,108.398,2.441,43.457,128.906,0.000
1659298153.142,92.773,-5.859,43.457,121.582,0.000
1659298153.146,87.402,-7.324,43.945,118.652,0.000
1659298153.150,101.074,-2.441,44.434,114.746,0.000
1659298153.154,97.656,0.977,40.527,117.676,0.000
1659298153.158,76.660,0.488,34.668,95.703,0.000
1659298153.162,76.660,-4.883,35.156,76.660,0.000
1659298153.166,85.449,-5.371,31.738,101.074,0.000
1659298153.169,92.285,-6.836,25.391,112.305,0.000
1659298153.173,83.984,-9.766,25.391,99.121,0.000
1659298153.177,74.707,-11.230,26.855,95.703,0.000
1659298153.181,75.684,-3.418,32.227,98.145,0.000
1659298153.185,89.844,-1.953,36.621,117.188,0.000
1659298153.189,97.656,-7.812,41.504,119.629,0.000
1659298153.193,84.961,-10.742,47.852,100.098,0.000
1659298153.197,73.730,-10.742,40.527,104.492,0.000
1659298153.201,85.449,-7.812,30.762,119.141,0.000
1659298153.205,88.867,-8.301,32.715,121.094,0.000
1659298153.209,75.684,-5.371,36.621,107.910,0.000
1659298153.212,89.355,2.441,34.668,110.840,0.000
1659298153.216,103.516,2.441,31.738,121.582,0.000
1659298153.220,100.098,6.348,34.180,128.418,0.000
1659298153.224,93.750,9.277,42.480,112.305,0.000
1659298153.228,91.309,1.953,39.551,107.422,0.000
1659298153.232,96.191,-14.648,22.949,113.281,0.000
1659298153.236,100.586,-13.184,13.672,110.840,0.000
1659298153.240,91.797,1.465,25.879,104.004,0.000
1659298153.244,89.844,9.277,28.809,97.168,0.000
1659298153.248,92.773,13.672,25.391,106.445,0.000
1659298153.251,99.609,13.672,28.320,118.164,0.000
1659298153.255,97.168,7.324,23.926,115.234,0.000
1659298153.259,87.402,6.348,26.367,105.469,0.000
1659298153.263,89.844,1.953,30.762,105.957,0.000
1659298153.267,92.773,-4.883,28.809,127.441,0.000
1659298153.271,92.773,1.953,25.391,143.066,0.000
1659298153.275,90.820,10.742,33.203,131.348,0.000
1659298153.279,94.727,7.324,34.668,118.164,0.000
1659298153.283,100.586,0.000,36.133,126.953,0.000
1659298153.287,104.980,-1.465,34.180,134.277,0.000
1659298153.291,96.680,10.254,35.645,127.930,0.000
1659298153.294,91.309,10.254,35.156,125.977,0.000
1659298153.298,95.215,2.441,30.273,123.047,0.000
1659298153.302,104.980,5.371,31.738,131.348,0.000
1659298153.306,99.121,6.348,31.738,128.906,0.000
1659298153.310,95.215,9.277,30.273,120.605,0.000
1659298153.314,101.562,13.672,35.645,127.930,0.000
1659298153.318,105.957,16.602,41.992,147.461,0.000
1659298153.322,92.285,13.672,42.969,147.949,0.000
1659298153.326,77.148,0.977,43.945,124.512,0.000
1659298153.330,75.195,-7.812,46.875,116.699,0.000
1659298153.334,77.148,-5.371,39.551,121.094,0.000
1659298153.337,76.172,4.883,33.203,119.629,0.000
1659298153.341,74.707,12.207,34.180,111.328,0.000
1659298153.345,81.543,12.695,41.016,118.652,0.000
1659298153.349,88.379,9.766,42.480,125.977,0.000
1659298153.353,93.750,7.812,39.551,130.859,0.000
1659298153.357,82.520,11.230,43.945,131.348,0.000
1659298153.361,73.242,17.578,46.875,112.305,0.000
1659298153.365,77.637,19.043,41.992,108.398,0.000
1659298153.369,85.449,9.277,37.109,114.258,0.000
1659298153.372,89.355,4.883,40.527,113.281,0.000
1659298153.376,84.473,-3.418,31.738,105.469,0.000
1659298153.380,76.660,-8.789,18.555,90.332,0.000
1659298153.384,86.914,8.789,27.344,97.656,0.000
1659298153.388,101.562,20.508,34.180,116.699,0.000
1659298153.392,96.191,15.625,29.297,114.258,0.000
1659298153.396,86.914,5.371,27.344,102.539,0.000
1659298153.400,90.332,3.906,33.691,111.816,0.000
1659298153.404,96.680,7.812,39.062,123.535,0.000
1659298153.408,89.844,2.930,37.109,101.074,0.000
1659298153.412,88.379,-3.906,33.691,96.191,0.000
1659298153.415,88.379,-11.719,26.855,99.121,0.000
1659298153.419,86.426,-5.859,22.949,96.680,0.000
1659298153.423,82.031,9.766,27.344,94.238,0.000
1659298153.427,82.031,3.906,20.996,86.914,0.000
1659298153.431,85.938,-11.719,18.555,89.844,0.000
1659298153.435,87.891,-6.836,25.391,112.305,0.000
1659298153.439,75.684,5.371,30.762,117.676,0.000
1659298153.443,69.824,10.742,31.250,99.121,0.000
1659298153.447,71.289,7.324,28.320,106.445,0.000
1659298153.451,81.055,6.348,28.809,121.582,0.000
1659298153.455,95.215,8.789,36.133,126.465,0.000
1659298153.458,93.262,8.301,34.180,122.559,0.000
1659298153.462,89.355,-3.418,25.879,108.887,0.000
1659298153.466,95.703,-10.254,32.715,122.070,0.000
1659298153.470,100.098,-6.836,37.598,142.578,0.000
1659298153.474,93.750,0.977,32.715,122.559,0.000
1659298153.478,89.355,9.277,32.227,108.398,0.000
1659298153.482,86.426,9.277,34.668,111.328,0.000
1659298153.486,92.285,8.789,33.203,121.094,0.000
1659298153.490,85.938,7.324,41.992,126.465,0.000
1659298153.494,78.613,4.395,47.852,116.211,0.000
1659298153.498,88.867,1.953,41.992,103.027,0.000
1659298153.501,91.309,4.395,39.062,114.746,0.000
1659298153.505,76.172,5.859,40.527,118.652,0.000
1659298153.509,63.477,-3.418,42.480,101.562,0.000
1659298153.513,69.824,-9.277,45.898,113.281,0.000
1659298153.517,79.590,-3.418,50.293,127.441,0.000
1659298153.521,79.102,4.395,43.945,113.770,0.000
1659298153.525,70.312,3.418,39.551,101.074,0.000
1659298153.529,67.871,2.441,45.898,104.004,0.000
1659298153.533,73.242,5.859,45.410,119.629,0.000
1659298153.537,87.891,9.277,37.598,122.559,0.000
1659298153.540,84.961,3.418,33.691,110.352,0.000
1659298153.544,72.754,1.953,28.320,100.586,0.000
1659298153.548,80.078,4.395,30.762,109.375,0.000
1659298153.552,95.703,-4.883,34.180,122.559,0.000
1659298153.556,89.844,2.441,26.855,109.375,0.000
1659298153.560,84.473,14.648,25.391,99.121,0.000
1659298153.564,83.984,8.789,22.461,110.352,0.000
1659298153.568,83.984,5.859,18.555,124.023,0.000
1659298153.572,79.102,9.277,24.902,125.977,0.000
1659298153.576,71.289,9.277,23.926,113.281,0.000
1659298153.580,72.754,5.859,17.578,88.379,0.000
1659298153.583,70.801,5.371,11.719,84.961,0.000
1659298153.587,75.684,9.277,14.648,100.586,0.000
1659298153.591,70.312,12.207,23.438,96.680,0.000
1659298153.595,67.871,1.953,22.949,83.984,0.000
1659298153.599,76.660,3.418,26.855,95.703,0.000
1659298153.603,77.148,7.812,20.020,111.328,0.000
1659298153.607,63.965,1.953,13.184,99.609,0.000
1659298153.611,64.453,1.465,25.879,95.703,0.000
1659298153.615,71.777,-2.930,30.273,103.516,0.000
1659298153.619,81.543,-4.883,31.250,117.676,0.000
1659298153.623,78.613,0.000,33.203,119.629,0.000
1659298153.626,70.801,1.465,28.809,98.145,0.000
1659298153.630,72.266,5.371,29.785,98.145,0.000
1659298153.634,75.684,6.836,32.715,114.746,0.000
1659298153.638,75.195,2.441,26.367,110.352,0.000
1659298153.642,61.523,-5.859,23.926,99.609,0.000
1659298153.646,54.688,-17.578,20.996,91.797,0.000
1659298153.650,61.035,-22.461,21.973,95.215,0.000
1659298153.654,62.988,-20.020,22.461,101.562,0.000
1659298153.658,52.246,-17.578,14.648,88.379,0.000
1659298153.662,50.293,-19.531,7.324,90.820,0.000
1659298153.666,55.176,-25.391,13.184,99.609,0.000
1659298153.669,59.082,-35.645,10.742,95.215,0.000
1659298153.673,58.594,-29.785,10.254,80.078,0.000
1659298153.677,56.152,-14.648,13.672,73.730,0.000
1659298153.681,58.105,-11.719,13.184,73.242,0.000
1659298153.685,62.012,-10.254,19.043,86.426,0.000
1659298153.689,59.082,-13.184,23.438,89.844,0.000
1659298153.693,61.035,-20.996,31.738,86.914,0.000
1659298153.697,62.012,-19.043,32.715,96.680,0.000
1659298153.701,65.430,-17.578,15.625,93.750,0.000
1659298153.704,74.219,-14.160,14.648,97.168,0.000
1659298153.708,76.660,-6.836,24.902,96.680,0.000
1659298153.712,76.660,-8.789,16.113,85.938,0.000
1659298153.716,83.984,-19.531,14.160,89.844,0.000
1659298153.720,99.609,-21.484,20.996,99.121,0.000
1659298153.724,81.543,-11.230,25.391,92.773,0.000
1659298153.728,70.312,-9.766,32.227,97.168,0.000
1659298153.732,83.496,-16.602,34.668,108.887,0.000
1659298153.736,102.051,-7.812,35.156,117.188,0.000
1659298153.740,97.656,3.418,33.203,117.188,0.000
1659298153.744,81.055,-0.977,26.367,96.191,0.000
1659298153.747,79.590,-0.977,27.344,88.867,0.000
1659298153.751,84.961,7.812,34.668,111.816,0.000
1659298153.755,78.125,9.277,31.250,109.863,0.000
1659298153.759,74.707,0.977,28.809,101.074,0.000
1659298153.763,88.379,-3.418,35.645,105.957,0.000
1659298153.767,93.262,-1.953,34.180,112.793,0.000
1659298153.771,86.914,2.930,28.809,122.070,0.000
1659298153.775,76.660,-0.488,28.809,111.328,0.000
1659298153.779,73.730,-7.812,24.414,99.609,0.000
1659298153.783,85.938,-9.277,25.879,116.211,0.000
1659298153.787,99.121,-3.418,31.250,126.465,0.000
1659298153.790,86.914,8.301,30.273,113.281,0.000
1659298153.794,75.195,10.254,29.297,121.582,0.000
1659298153.798,82.031,14.160,29.785,128.906,0.000
1659298153.802,88.379,15.625,28.809,121.094,0.000
1659298153.806,88.867,10.254,27.832,111.328,0.000
1659298153.810,93.750,8.301,31.250,108.398,0.000
1659298153.814,89.844,5.859,33.691,103.516,0.000
1659298153.818,93.262,-2.930,30.273,104.004,0.000
1659298153.822,98.145,-5.371,34.180,113.281,0.000
1659298153.826,87.402,-0.977,34.180,108.887,0.000
1659298153.829,78.613,2.441,30.762,119.629,0.000
1659298153.833,91.797,4.395,41.992,120.117,0.000
1659298153.837,102.539,8.301,43.457,119.629,0.000
1659298153.841,91.797,17.090,44.922,122.070,0.000
1659298153.845,94.238,8.301,50.293,129.883,0.000
1659298153.849,92.285,-4.395,41.016,128.418,0.000
1659298153.853,93.262,0.488,36.621,122.559,0.000
1659298153.857,96.680,10.254,41.016,124.512,0.000
1659298153.861,96.680,16.113,44.434,129.395,0.000
1659298153.865,107.422,22.461,48.340,134.766,0.000
1659298153.869,115.234,20.020,51.270,148.926,0.000
1659298153.872,108.887,15.137,56.641,150.391,0.000
1659298153.876,104.980,10.254,55.664,143.066,0.000
1659298153.880,103.516,8.789,43.457,129.883,0.000
1659298153.884,112.305,13.672,48.828,137.695,0.000
1659298153.888,110.352,10.254,61.035,153.809,0.000
1659298153.892,97.168,13.672,63.477,144.043,0.000
1659298153.896,104.980,15.625,63.477,130.371,0.000
1659298153.900,106.445,11.719,61.523,138.184,0.000
1659298153.904,109.375,10.254,62.988,144.531,0.000
1659298153.908,103.027,16.602,60.547,129.395,0.000
1659298153.912,86.914,17.578,55.664,117.676,0.000
1659298153.915,86.914,10.254,55.664,124.512,0.000
1659298153.919,97.656,13.672,55.664,152.344,0.000
1659298153.923,86.426,13.672,54.688,143.555,0.000
1659298153.927,80.078,14.160,53.711,114.258,0.000
1659298153.931,99.609,12.695,57.617,119.141,0.000
1659298153.935,112.793,10.742,57.617,137.207,0.000
1659298153.939,94.238,10.254,52.734,134.766,0.000
1659298153.943,91.309,8.789,53.223,127.930,0.000
1659298153.947,103.516,12.207,58.594,136.230,0.000
1659298153.951,106.934,7.812,60.547,140.137,0.000
1659298153.954,106.934,6.836,58.594,139.648,0.000
1659298153.958,103.027,7.812,60.059,141.602,0.000
1659298153.962,103.027,11.719,60.547,145.508,0.000
1659298153.966,109.375,18.555,56.641,156.250,0.000
1659298153.970,109.375,8.789,47.363,156.250,0.000
1659298153.974,102.539,7.324,51.270,145.996,0.000
1659298153.978,106.445,14.648,60.547,141.602,0.000
1659298153.982,116.699,15.625,57.617,149.902,0.000
1659298153.986,127.441,10.742,60.059,163.086,0.000
1659298153.990,110.840,9.766,68.848,152.344,0.000
1659298153.993,103.027,13.184,78.125,153.320,0.000
1659298153.997,105.957,16.113,75.195,171.875,0.000
1659298154.001,107.910,26.367,63.965,172.363,0.000
1659298154.005,109.863,34.668,63.965,161.621,0.000
1659298154.009,107.910,34.180,65.430,148.438,0.000
1659298154.013,110.840,36.133,69.336,144.043,0.000
1659298154.017,118.164,34.180,73.730,152.832,0.000
1659298154.021,125.000,20.996,73.730,161.133,0.000
1659298154.025,115.234,21.973,70.801,154.785,0.000
1659298154.029,107.910,26.855,62.500,145.508,0.000
1659298154.032,116.699,27.344,63.965,147.461,0.000
1659298154.037,137.695,28.809,67.383,174.805,0.000
1659298154.040,137.695,33.691,61.523,167.480,0.000
1659298154.044,123.047,34.668,65.918,146.484,0.000
1659298154.048,118.164,37.109,70.801,152.832,0.000
1659298154.052,127.441,43.457,75.684,168.457,0.000
1659298154.056,121.582,44.434,79.102,163.574,0.000
1659298154.060,116.699,41.504,81.543,145.508,0.000
1659298154.064,127.441,38.574,83.496,150.879,0.000
1659298154.068,125.488,33.203,73.730,161.133,0.000
1659298154.072,116.699,37.598,70.312,155.273,0.000
1659298154.075,111.328,41.504,76.660,145.996,0.000
1659298154.079,117.188,38.086,73.242,143.066,0.000
1659298154.083,121.094,34.668,74.707,147.461,0.000
1659298154.087,109.863,33.203,70.312,144.531,0.000
1659298154.091,100.098,26.367,56.152,135.254,0.000
1659298154.095,98.633,22.949,53.711,132.812,0.000
1659298154.099,103.516,29.297,58.105,145.996,0.000
1659298154.103,111.328,29.785,55.664,155.273,0.000
1659298154.107,99.609,19.531,41.992,128.906,0.000
1659298154.111,87.402,9.277,41.504,120.605,0.000
1659298154.115,85.938,0.977,49.316,125.977,0.000
1659298154.118,88.867,-1.953,45.410,124.512,0.000
1659298154.122,82.031,2.930,41.016,125.000,0.000
1659298154.126,80.078,6.836,46.875,116.211,0.000
1659298154.130,86.914,8.789,53.223,121.094,0.000
1659298154.134,93.262,9.277,47.363,126.953,0.000
1659298154.138,99.609,7.812,39.551,117.676,0.000
1659298154.142,94.727,14.160,49.805,105.957,0.000
1659298154.146,93.262,15.137,57.617,113.281,0.000
1659298154.150,96.191,16.113,49.805,124.512,0.000
1659298154.154,100.586,21.484,44.434,124.023,0.000
1659298154.158,84.473,8.301,38.086,108.398,0.000
1659298154.161,74.219,0.488,31.738,109.863,0.000
1659298154.165,84.473,2.930,28.809,114.258,0.000
1659298154.169,95.703,3.418,34.180,123.047,0.000
1659298154.173,93.750,8.789,38.574,121.582,0.000
1659298154.177,88.867,20.508,45.410,113.281,0.000
1659298154.181,95.215,27.344,51.270,129.883,0.000
1659298154.185,107.910,26.855,53.223,153.809,0.000
1659298154.189,107.422,13.672,55.664,143.066,0.000
1659298154.193,105.469,12.695,65.918,124.512,0.000
1659298154.197,110.840,28.320,75.195,132.324,0.000
1659298154.201,123.047,30.273,69.336,140.137,0.000
1659298154.204,125.000,26.367,66.406,143.066,0.000
1659298154.208,103.516,24.414,64.941,134.277,0.000
1659298154.212,90.820,23.926,67.383,127.441,0.000
1659298154.216,101.074,20.020,66.406,142.578,0.000
1659298154.220,110.840,20.020,64.941,147.949,0.000
1659298154.224,100.586,17.090,60.547,126.465,0.000
1659298154.228,101.074,18.555,62.012,118.164,0.000
1659298154.232,116.211,12.695,78.613,134.277,0.000
1659298154.236,120.117,1.465,74.219,141.602,0.000
1659298154.240,110.840,8.789,58.105,133.789,0.000
1659298154.244,98.145,19.043,58.594,126.953,0.000
1659298154.247,102.539,21.484,68.848,130.371,0.000
1659298154.251,111.816,31.738,74.219,153.320,0.000
1659298154.255,110.840,31.738,70.801,156.738,0.000
1659298154.259,114.746,30.273,77.148,135.254,0.000
1659298154.263,124.512,31.738,83.496,142.578,0.000
1659298154.267,137.207,22.949,81.543,166.016,0.000
1659298154.271,135.254,18.555,79.590,164.062,0.000
1659298154.275,120.605,21.973,76.172,141.113,0.000
1659298154.279,124.023,26.367,67.871,138.672,0.000
1659298154.283,129.395,30.273,65.430,152.344,0.000
1659298154.286,133.301,25.391,64.453,158.691,0.000
1659298154.290,127.930,22.461,62.012,159.180,0.000
1659298154.294,117.676,29.785,57.617,145.508,0.000
1659298154.298,116.699,28.809,60.059,135.254,0.000
1659298154.302,125.000,21.484,66.895,148.926,0.000
1659298154.306,120.117,12.695,65.918,146.484,0.000
1659298154.310,114.258,7.324,68.848,140.137,0.000
1659298154.314,115.234,3.906,65.430,138.184,0.000
1659298154.318,122.070,15.137,61.523,144.531,0.000
1659298154.322,123.535,32.715,61.035,148.438,0.000
1659298154.326,110.840,33.691,65.918,138.672,0.000
1659298154.329,110.352,29.297,68.359,152.832,0.000
1659298154.333,119.141,19.043,61.035,164.551,0.000
1659298154.337,119.629,10.254,59.082,166.504,0.000
1659298154.341,106.445,20.996,58.105,156.250,0.000
1659298154.345,98.145,28.320,45.410,136.230,0.000
1659298154.349,104.980,31.738,39.062,132.812,0.000
1659298154.353,115.723,25.879,44.922,137.695,0.000
1659298154.357,106.934,19.531,48.340,134.766,0.000
1659298154.361,99.609,21.973,49.805,129.883,0.000
1659298154.365,102.051,22.949,54.688,140.625,0.000
1659298154.369,104.980,20.508,53.223,144.043,0.000
1659298154.372,93.750,18.555,51.758,138.672,0.000
1659298154.376,88.379,25.391,53.223,128.418,0.000
1659298154.380,93.262,25.879,47.852,129.395,0.000
1659298154.384,100.098,22.949,48.340,145.020,0.000
1659298154.388,98.633,13.184,48.828,139.160,0.000
1659298154.392,91.797,8.789,40.039,124.023,0.000
1659298154.396,92.285,16.602,39.062,126.953,0.000
1659298154.400,91.309,25.391,41.992,136.230,0.000
1659298154.404,96.680,20.996,36.621,131.836,0.000
1659298154.408,87.891,10.742,38.086,116.211,0.000
1659298154.412,88.379,19.043,46.387,116.699,0.000
1659298154.415,96.191,23.438,44.434,128.906,0.000
1659298154.419,98.633,11.719,44.922,136.719,0.000
1659298154.423,94.727,11.719,45.898,119.141,0.000
1659298154.427,83.496,17.578,41.504,107.910,0.000
1659298154.431,84.961,19.043,36.621,114.258,0.000
1659298154.435,96.680,16.602,34.668,120.605,0.000
1659298154.439,103.516,19.043,38.574,117.676,0.000
1659298154.443,104.492,21.973,42.480,110.352,0.000
1659298154.447,92.773,7.812,27.344,112.305,0.000
1659298154.451,88.867,-1.953,20.020,113.770,0.000
1659298154.454,88.867,3.906,21.484,98.145,0.000
1659298154.458,87.402,14.160,20.020,83.496,0.000
1659298154.462,89.355,21.973,27.832,85.938,0.000
1659298154.466,93.262,25.391,31.250,94.727,0.000
1659298154.470,92.285,21.973,24.414,108.887,0.000
1659298154.474,86.914,20.996,25.879,104.492,0.000
1659298154.478,90.332,22.949,35.645,99.609,0.000
1659298154.482,88.867,20.020,29.785,95.703,0.000
1659298154.486,94.727,12.207,20.508,106.934,0.000
1659298154.490,96.680,9.766,23.926,121.582,0.000
1659298154.493,89.355,13.184,25.879,116.211,0.000
1659298154.497,98.145,20.508,30.762,101.562,0.000
1659298154.501,106.934,17.090,33.691,115.234,0.000
1659298154.505,98.633,8.789,32.715,130.371,0.000
1659298154.509,88.379,8.789,28.809,111.816,0.000
1659298154.513,91.309,4.883,22.461,107.910,0.000
1659298154.517,106.445,-0.977,23.926,121.582,0.000
1659298154.521,107.910,12.695,22.461,121.582,0.000
1659298154.525,93.750,20.020,20.508,111.816,0.000
1659298154.529,92.285,17.578,31.250,110.352,0.000
1659298154.533,97.656,17.578,37.109,120.605,0.000
1659298154.536,95.703,8.301,28.320,139.648,0.000
1659298154.540,94.727,5.859,25.879,125.977,0.000
1659298154.544,101.562,8.789,26.855,112.305,0.000
1659298154.548,104.980,8.301,28.320,121.582,0.000
1659298154.552,106.934,5.859,28.320,135.742,0.000
1659298154.556,97.168,3.906,18.066,117.188,0.000
1659298154.560,87.891,4.883,18.555,104.980,0.000
1659298154.564,90.332,6.348,26.855,117.188,0.000
1659298154.568,93.262,14.160,31.250,128.906,0.000
1659298154.572,99.609,23.926,34.668,130.371,0.000
1659298154.576,104.492,23.438,37.109,119.141,0.000
1659298154.579,88.379,9.766,30.762,114.746,0.000
1659298154.583,84.473,9.766,19.043,119.629,0.000
1659298154.587,95.703,16.113,24.902,124.023,0.000
1659298154.591,85.938,11.230,34.668,105.469,0.000
1659298154.595,77.148,5.371,32.715,89.355,0.000
1659298154.599,75.684,7.324,30.273,99.609,0.000
1659298154.603,88.379,11.230,25.391,116.699,0.000
1659298154.607,101.074,9.277,20.996,129.883,0.000
1659298154.611,89.844,0.488,24.414,118.652,0.000
1659298154.615,70.312,-12.695,30.273,94.238,0.000
1659298154.618,68.359,-16.602,30.762,108.398,0.000
1659298154.622,72.754,-3.906,24.902,117.188,0.000
1659298154.626,76.660,10.742,24.414,99.609,0.000
1659298154.630,77.637,3.418,31.250,92.773,0.000
1659298154.634,80.078,-1.953,40.527,106.934,0.000
1659298154.638,83.984,0.000,41.016,118.652,0.000
1659298154.642,76.172,-5.859,31.250,104.004,0.000
1659298154.646,86.426,-3.906,24.414,104.980,0.000
1659298154.650,98.633,3.906,24.414,126.953,0.000
1659298154.654,88.379,2.930,30.273,129.883,0.000
1659298154.658,78.613,7.324,36.133,119.141,0.000
1659298154.661,74.707,5.371,43.457,125.977,0.000
1659298154.665,75.684,5.371,42.969,120.605,0.000
1659298154.669,82.520,6.348,38.086,119.629,0.000
1659298154.673,80.566,-1.465,37.598,125.000,0.000
1659298154.677,77.637,-5.859,37.109,110.352,0.000
1659298154.681,84.961,-1.953,37.109,113.281,0.000
1659298154.685,98.633,-1.465,38.574,131.348,0.000
1659298154.689,94.727,-8.301,36.133,124.023,0.000
1659298154.693,89.844,-13.184,26.855,109.375,0.000
1659298154.697,96.680,-9.766,27.832,119.141,0.000
1659298154.701,101.562,-5.371,35.156,133.789,0.000
1659298154.704,95.215,1.953,29.297,132.812,0.000
1659298154.708,83.496,2.441,28.320,119.629,0.000
1659298154.712,79.590,6.348,40.527,118.164,0.000
1659298154.716,85.938,4.395,41.016,129.395,0.000
1659298154.720,93.262,4.395,44.434,148.438,0.000
1659298154.724,86.914,9.766,45.898,141.113,0.000
1659298154.728,87.891,8.301,40.527,128.906,0.000
1659298154.732,94.238,15.137,42.480,136.719,0.000
1659298154.736,103.027,14.160,44.922,150.391,0.000
1659298154.740,99.609,10.254,46.875,137.207,0.000
1659298154.743,88.867,11.230,39.062,110.840,0.000
1659298154.747,86.426,2.441,38.574,113.770,0.000
1659298154.751,84.961,-7.324,38.086,128.906,0.000
1659298154.755,81.543,-5.371,27.344,125.488,0.000
1659298154.759,77.148,-0.488,22.461,115.234,0.000
1659298154.763,76.660,2.441,18.066,105.957,0.000
1659298154.767,75.684,-4.883,11.230,97.656,0.000
1659298154.771,71.777,-5.859,12.207,113.281,0.000
1659298154.775,64.453,0.000,17.090,114.258,0.000
1659298154.779,62.500,-13.184,11.230,86.914,0.000
1659298154.782,62.500,-20.996,-1.465,74.219,0.000
1659298154.786,64.941,-15.625,2.441,84.961,0.000
1659298154.790,66.895,-15.625,5.371,84.961,0.000
1659298154.794,63.477,-12.695,-2.930,66.406,0.000
1659298154.798,59.082,-2.930,-0.977,69.824,0.000
1659298154.802,68.848,9.766,5.859,93.262,0.000
1659298154.806,64.453,6.836,1.953,88.379,0.000
1659298154.810,58.105,-3.418,1.465,86.426,0.000
1659298154.814,68.848,2.441,8.789,94.238,0.000
1659298154.818,82.031,3.418,15.625,103.516,0.000
1659298154.822,74.219,-10.742,11.230,104.492,0.000
1659298154.825,63.477,-15.137,3.906,82.520,0.000
1659298154.829,70.312,-7.812,17.090,85.449,0.000
1659298154.833,77.148,-3.418,21.973,103.027,0.000
1659298154.837,82.520,0.977,13.672,109.863,0.000
1659298154.841,75.195,-0.488,7.324,91.309,0.000
1659298154.845,72.754,2.441,8.789,88.379,0.000
1659298154.849,82.031,7.812,21.973,116.211,0.000
1659298154.853,87.891,8.789,20.996,128.418,0.000
1659298154.857,82.031,8.301,13.184,107.422,0.000
1659298154.861,77.637,5.371,11.719,95.703,0.000
1659298154.865,87.402,0.488,16.602,110.840,0.000
1659298154.868,98.633,-1.953,23.438,126.465,0.000
1659298154.872,95.215,-2.441,23.926,116.699,0.000
1659298154.876,88.867,0.000,25.879,107.910,0.000
1659298154.880,91.797,9.277,28.320,115.234,0.000
1659298154.884,86.914,10.254,22.949,116.699,0.000
1659298154.888,79.102,8.301,16.113,115.234,0.000
1659298154.892,80.078,13.672,23.926,105.469,0.000
1659298154.896,92.285,20.508,33.203,112.305,0.000
1659298154.900,100.586,17.578,27.832,138.184,0.000
1659298154.904,98.145,6.836,27.344,136.230,0.000
1659298154.907,91.797,0.977,25.879,113.281,0.000
1659298154.911,85.449,1.465,17.578,107.422,0.000
1659298154.915,83.008,-0.488,15.137,93.262,0.000
1659298154.919,86.426,-10.254,13.672,94.727,0.000
1659298154.923,81.055,-10.254,10.254,91.309,0.000
1659298154.927,80.078,-4.883,9.277,84.961,0.000
1659298154.931,85.938,-0.977,15.137,89.355,0.000
1659298154.935,90.332,1.465,17.090,103.516,0.000
1659298154.939,86.914,-7.324,20.020,113.281,0.000
1659298154.943,77.637,-6.836,26.367,99.609,0.000
1659298154.947,83.496,-0.977,24.902,100.586,0.000
1659298154.950,88.867,1.953,20.996,107.910,0.000
1659298154.954,79.590,3.418,21.484,110.352,0.000
1659298154.958,71.777,2.441,18.555,103.027,0.000
1659298154.962,73.242,4.883,17.578,94.727,0.000
1659298154.966,80.078,-2.441,17.090,102.051,0.000
1659298154.970,79.590,-9.277,14.648,110.840,0.000
1659298154.974,65.430,-7.812,11.719,96.191,0.000
1659298154.978,64.453,-4.395,11.719,88.379,0.000
1659298154.982,71.289,-0.488,13.672,96.680,0.000
1659298154.986,74.219,-3.418,13.184,107.422,0.000
1659298154.990,69.336,0.488,15.137,107.910,0.000
1659298154.993,64.941,0.977,16.602,101.074,0.000
1659298154.997,67.871,-5.371,8.301,107.422,0.000
1659298155.001,80.078,-1.953,8.789,130.371,0.000
1659298155.005,74.219,-2.930,13.672,117.188,0.000
1659298155.009,61.035,-8.789,13.672,93.262,0.000
1659298155.013,66.406,-9.766,22.949,105.957,0.000
1659298155.017,81.055,-9.277,33.691,125.488,0.000
1659298155.021,84.961,-2.930,25.879,125.488,0.000
1659298155.025,62.012,11.230,18.555,102.539,0.000
1659298155.029,58.105,17.090,21.484,90.332,0.000
1659298155.033,73.242,9.277,26.855,101.562,0.000
1659298155.036,77.148,-7.324,27.344,104.980,0.000
1659298155.040,69.336,-11.230,22.461,99.609,0.000
1659298155.044,72.754,2.441,24.414,99.121,0.000
1659298155.048,83.984,8.301,25.391,104.004,0.000
1659298155.052,82.031,4.883,21.973,112.793,0.000
1659298155.056,75.684,6.348,17.090,101.562,0.000
1659298155.060,77.637,8.301,15.137,108.398,0.000
1659298155.064,83.008,11.230,14.160,124.512,0.000
1659298155.068,96.191,6.348,18.555,130.371,0.000
1659298155.072,94.727,-3.906,23.926,133.789,0.000
1659298155.075,80.566,0.977,22.949,125.977,0.000
1659298155.079,80.078,8.789,22.461,128.906,0.000
1659298155.083,77.148,8.789,23.926,146.484,0.000
1659298155.087,75.684,5.371,19.531,157.715,0.000
1659298155.091,76.660,-6.836,15.625,141.602,0.000
1659298155.095,71.777,-4.395,10.742,129.883,0.000
1659298155.099,65.918,2.441,12.207,126.953,0.000
